energy,Counts
0.08,300.0
0.29,300.0
0.49,0.0
0.69,0.0
0.9,0.0
1.1,15.0
1.3,74.0
1.51,85.0
1.71,79.0
1.91,77.0
2.12,60.0
2.32,41.0
2.53,49.0
2.73,35.0
2.93,29.0
3.14,27.0
3.34,26.0
3.54,22.0
3.75,30.0
3.95,14.0
4.15,28.0
4.36,15.0
4.56,14.0
4.76,16.0
4.97,16.0
5.17,12.0
5.37,13.0
5.58,11.0
5.78,8.0
5.98,12.0
6.19,18.0
6.39,13.0
6.59,11.0
6.8,25.0
7.0,12.0
7.21,11.0
7.41,10.0
7.61,14.0
7.82,9.0
8.02,13.0
8.22,12.0
8.43,14.0
8.63,7.0
8.83,7.0
9.04,8.0
9.24,12.0
9.44,5.0
9.65,4.0
9.85,8.0
10.05,7.0
10.26,9.0
10.46,5.0
10.66,7.0
10.87,11.0
11.07,8.0
11.28,8.0
11.48,9.0
11.68,6.0
11.89,7.0
12.09,9.0
12.29,8.0
12.5,8.0
12.7,7.0
12.9,4.0
13.11,3.0
13.31,7.0
13.51,5.0
13.72,9.0
13.92,8.0
14.12,12.0
14.33,5.0
14.53,9.0
14.73,6.0
14.94,3.0
15.14,5.0
15.34,11.0
15.55,2.0
15.75,5.0
15.96,4.0
16.16,9.0
16.36,8.0
16.57,6.0
16.77,3.0
16.97,0.0
17.18,1.0
17.38,9.0
17.58,7.0
17.79,4.0
17.99,12.0
18.19,4.0
18.4,5.0
18.6,3.0
18.8,2.0
19.01,7.0
19.21,2.0
19.41,6.0
19.62,3.0
19.82,4.0
20.03,3.0
20.23,7.0
20.43,2.0
20.64,6.0
20.84,2.0
21.04,1.0
21.25,7.0
21.45,4.0
21.65,3.0
21.86,5.0
22.06,7.0
22.26,8.0
22.47,5.0
22.67,3.0
22.87,7.0
23.08,5.0
23.28,4.0
23.48,1.0
23.69,2.0
23.89,5.0
24.09,3.0
24.3,3.0
24.5,5.0
24.71,3.0
24.91,4.0
25.11,4.0
25.32,4.0
25.52,6.0
25.72,5.0
25.93,8.0
26.13,5.0
26.33,7.0
26.54,3.0
26.74,2.0
26.94,5.0
27.15,6.0
27.35,12.0
27.55,8.0
27.76,5.0
27.96,4.0
28.16,2.0
28.37,5.0
28.57,3.0
28.77,1.0
28.98,2.0
29.18,2.0
29.39,6.0
29.59,1.0
29.79,3.0
30.0,1.0
30.2,7.0
30.4,4.0
30.61,1.0
30.81,8.0
31.01,7.0
31.22,4.0
31.42,6.0
31.62,5.0
31.83,3.0
32.03,1.0
32.23,2.0
32.44,2.0
32.64,2.0
32.84,3.0
33.05,0.0
33.25,3.0
33.45,2.0
33.66,0.0
33.86,1.0
34.07,2.0
34.27,1.0
34.47,2.0
34.68,6.0
34.88,0.0
35.08,4.0
35.29,3.0
35.49,11.0
35.69,4.0
35.9,7.0
36.1,0.0
36.3,1.0
36.51,0.0
36.71,2.0
36.91,2.0
37.12,0.0
37.32,1.0
37.52,0.0
37.73,0.0
37.93,1.0
38.13,3.0
38.34,1.0
38.54,1.0
38.75,2.0
38.95,0.0
39.15,3.0
39.36,3.0
39.56,2.0
39.76,1.0
39.97,2.0
40.17,0.0
40.37,1.0
40.58,1.0
40.78,2.0
40.98,0.0
41.19,1.0
41.39,2.0
41.59,1.0
41.8,1.0
42.0,0.0
42.2,0.0
42.41,2.0
42.61,2.0
42.81,0.0
43.02,0.0
43.22,2.0
43.43,1.0
43.63,0.0
43.83,1.0
44.04,1.0
44.24,0.0
44.44,3.0
44.65,1.0
44.85,0.0
45.05,0.0
45.26,3.0
45.46,1.0
45.66,0.0
45.87,3.0
46.07,2.0
46.27,0.0
46.48,3.0
46.68,3.0
46.88,2.0
47.09,0.0
47.29,3.0
47.49,4.0
47.7,0.0
47.9,0.0
48.11,3.0
48.31,1.0
48.51,1.0
48.72,1.0
48.92,1.0
49.12,2.0
49.33,2.0
49.53,0.0
49.73,2.0
49.94,0.0
50.14,1.0
50.34,0.0
50.55,2.0
50.75,3.0
50.95,1.0
51.16,3.0
51.36,3.0
51.56,1.0
51.77,3.0
51.97,3.0
52.17,0.0
52.38,3.0
52.58,1.0
52.79,3.0
52.99,0.0
53.19,1.0
53.4,0.0
53.6,0.0
53.8,1.0
54.01,2.0
54.21,0.0
54.41,3.0
54.62,2.0
54.82,2.0
55.02,1.0
55.23,5.0
55.43,1.0
55.63,4.0
55.84,2.0
56.04,3.0
56.24,2.0
56.45,1.0
56.65,2.0
56.85,1.0
57.06,2.0
57.26,2.0
57.47,1.0
57.67,4.0
57.87,1.0
58.08,2.0
58.28,1.0
58.48,1.0
58.69,0.0
58.89,2.0
59.09,2.0
59.3,2.0
59.5,4.0
59.7,2.0
59.91,1.0
60.11,1.0
60.31,2.0
60.52,0.0
60.72,0.0
60.92,1.0
61.13,3.0
61.33,0.0
61.53,2.0
61.74,3.0
61.94,0.0
62.15,0.0
62.35,4.0
62.55,2.0
62.76,1.0
62.96,2.0
63.16,1.0
63.37,2.0
63.57,1.0
63.77,3.0
63.98,2.0
64.18,2.0
64.38,2.0
64.59,3.0
64.79,2.0
64.99,5.0
65.2,1.0
65.4,1.0
65.6,6.0
65.81,1.0
66.01,0.0
66.21,1.0
66.42,2.0
66.62,1.0
66.83,2.0
67.03,3.0
67.23,2.0
67.44,2.0
67.64,2.0
67.84,0.0
68.05,1.0
68.25,1.0
68.45,2.0
68.66,3.0
68.86,3.0
69.06,0.0
69.27,2.0
69.47,2.0
69.67,3.0
69.88,0.0
70.08,2.0
70.28,1.0
70.49,3.0
70.69,3.0
70.89,0.0
71.1,2.0
71.3,4.0
71.5,1.0
71.71,3.0
71.91,1.0
72.12,1.0
72.32,2.0
72.52,3.0
72.73,2.0
72.93,2.0
73.13,2.0
73.34,3.0
73.54,1.0
73.74,3.0
73.95,0.0
74.15,2.0
74.35,3.0
74.56,2.0
74.76,2.0
74.96,6.0
75.17,5.0
75.37,3.0
75.57,3.0
75.78,1.0
75.98,1.0
76.18,2.0
76.39,3.0
76.59,0.0
76.8,2.0
77.0,4.0
77.2,5.0
77.41,1.0
77.61,4.0
77.81,2.0
78.02,0.0
78.22,1.0
78.42,3.0
78.63,1.0
78.83,0.0
79.03,2.0
79.24,4.0
79.44,3.0
79.64,3.0
79.85,2.0
80.05,1.0
80.25,1.0
80.46,1.0
80.66,5.0
80.86,3.0
81.07,0.0
81.27,1.0
81.47,5.0
81.68,2.0
81.88,2.0
82.09,2.0
82.29,0.0
82.49,3.0
82.7,0.0
82.9,1.0
83.1,1.0
83.31,1.0
83.51,5.0
83.71,2.0
83.92,1.0
84.12,1.0
84.32,2.0
84.53,1.0
84.73,3.0
84.93,4.0
85.14,6.0
85.34,1.0
85.54,5.0
85.75,3.0
85.95,1.0
86.15,7.0
86.36,4.0
86.56,2.0
86.77,0.0
86.97,0.0
87.17,2.0
87.38,6.0
87.58,3.0
87.78,1.0
87.99,3.0
88.19,2.0
88.39,5.0
88.6,1.0
88.8,3.0
89.0,1.0
89.21,3.0
89.41,3.0
89.61,0.0
89.82,1.0
90.02,4.0
90.22,0.0
90.43,2.0
90.63,1.0
90.83,2.0
91.04,2.0
91.24,4.0
91.44,3.0
91.65,2.0
91.85,3.0
92.06,5.0
92.26,2.0
92.46,7.0
92.67,2.0
92.87,4.0
93.07,2.0
93.28,2.0
93.48,5.0
93.68,1.0
93.89,1.0
94.09,1.0
94.29,0.0
94.5,2.0
94.7,3.0
94.9,3.0
95.11,0.0
95.31,2.0
95.51,1.0
95.72,1.0
95.92,2.0
96.12,7.0
96.33,5.0
96.53,1.0
96.74,5.0
96.94,7.0
97.14,3.0
97.35,4.0
97.55,3.0
97.75,1.0
97.96,0.0
98.16,3.0
98.36,1.0
98.57,3.0
98.77,2.0
98.97,4.0
99.18,2.0
99.38,2.0
99.58,1.0
99.79,1.0
99.99,2.0
100.19,1.0
100.4,4.0
100.6,1.0
100.8,2.0
101.01,3.0
101.21,2.0
101.41,2.0
101.62,4.0
101.82,3.0
102.03,2.0
102.23,2.0
102.43,3.0
102.64,1.0
102.84,3.0
103.04,2.0
103.25,2.0
103.45,2.0
103.65,2.0
103.86,1.0
104.06,3.0
104.26,1.0
104.47,1.0
104.67,5.0
104.87,4.0
105.08,2.0
105.28,3.0
105.48,0.0
105.69,2.0
105.89,2.0
106.09,2.0
106.3,1.0
106.5,2.0
106.7,3.0
106.91,4.0
107.11,4.0
107.32,2.0
107.52,2.0
107.72,3.0
107.93,1.0
108.13,1.0
108.33,1.0
108.54,1.0
108.74,0.0
108.94,4.0
109.15,1.0
109.35,3.0
109.55,6.0
109.76,1.0
109.96,2.0
110.16,3.0
110.37,3.0
110.57,1.0
110.77,3.0
110.98,3.0
111.18,2.0
111.38,2.0
111.59,0.0
111.79,2.0
111.99,1.0
112.2,5.0
112.4,1.0
112.61,1.0
112.81,0.0
113.01,7.0
113.22,2.0
113.42,1.0
113.62,3.0
113.83,2.0
114.03,1.0
114.23,2.0
114.44,1.0
114.64,4.0
114.84,2.0
115.05,3.0
115.25,1.0
115.45,0.0
115.66,1.0
115.86,1.0
116.06,2.0
116.27,2.0
116.47,2.0
116.67,6.0
116.88,2.0
117.08,3.0
117.28,4.0
117.49,2.0
117.69,1.0
117.9,0.0
118.1,3.0
118.3,5.0
118.51,1.0
118.71,3.0
118.91,0.0
119.12,1.0
119.32,0.0
119.52,2.0
119.73,2.0
119.93,4.0
120.13,2.0
120.34,2.0
120.54,0.0
120.74,2.0
120.95,2.0
121.15,4.0
121.35,2.0
121.56,2.0
121.76,1.0
121.96,3.0
122.17,3.0
122.37,4.0
122.57,3.0
122.78,1.0
122.98,1.0
123.19,2.0
123.39,1.0
123.59,2.0
123.8,3.0
124.0,4.0
124.2,3.0
124.41,2.0
124.61,3.0
124.81,1.0
125.02,1.0
125.22,3.0
125.42,2.0
125.63,1.0
125.83,2.0
126.03,2.0
126.24,1.0
126.44,3.0
126.64,2.0
126.85,4.0
127.05,3.0
127.25,2.0
127.46,1.0
127.66,1.0
127.86,4.0
128.07,7.0
128.27,3.0
128.48,4.0
128.68,3.0
128.88,2.0
129.09,2.0
129.29,3.0
129.49,0.0
129.7,2.0
129.9,2.0
130.1,0.0
130.31,0.0
130.51,1.0
130.71,0.0
130.92,2.0
131.12,4.0
131.32,1.0
131.53,3.0
131.73,2.0
131.93,4.0
132.14,0.0
132.34,3.0
132.54,3.0
132.75,0.0
132.95,1.0
133.15,4.0
133.36,2.0
133.56,2.0
133.76,2.0
133.97,2.0
134.17,0.0
134.38,1.0
134.58,5.0
134.78,3.0
134.99,6.0
135.19,0.0
135.39,2.0
135.6,3.0
135.8,4.0
136.0,6.0
136.21,4.0
136.41,3.0
136.61,2.0
136.82,3.0
137.02,1.0
137.22,3.0
137.43,3.0
137.63,1.0
137.83,4.0
138.04,4.0
138.24,0.0
138.44,0.0
138.65,0.0
138.85,3.0
139.05,4.0
139.26,1.0
139.46,3.0
139.67,3.0
139.87,2.0
140.07,4.0
140.28,1.0
140.48,1.0
140.68,1.0
140.89,1.0
141.09,4.0
141.29,5.0
141.5,2.0
141.7,2.0
141.9,2.0
142.11,5.0
142.31,3.0
142.51,3.0
142.72,1.0
142.92,1.0
143.12,5.0
143.33,1.0
143.53,1.0
143.73,3.0
143.94,3.0
144.14,2.0
144.34,6.0
144.55,2.0
144.75,1.0
144.96,0.0
145.16,3.0
145.36,0.0
145.57,1.0
145.77,1.0
145.97,1.0
146.18,5.0
146.38,1.0
146.58,3.0
146.79,3.0
146.99,2.0
147.19,2.0
147.4,0.0
147.6,1.0
147.8,2.0
148.01,4.0
148.21,2.0
148.41,2.0
148.62,1.0
148.82,2.0
149.02,3.0
149.23,1.0
149.43,1.0
149.63,1.0
149.84,2.0
150.04,2.0
150.24,0.0
150.45,2.0
150.65,3.0
150.86,0.0
151.06,2.0
151.26,0.0
151.47,3.0
151.67,3.0
151.87,2.0
152.08,1.0
152.28,1.0
152.48,4.0
152.69,0.0
152.89,2.0
153.09,1.0
153.3,2.0
153.5,0.0
153.7,3.0
153.91,1.0
154.11,5.0
154.31,0.0
154.52,4.0
154.72,4.0
154.92,4.0
155.13,2.0
155.33,3.0
155.53,2.0
155.74,3.0
155.94,0.0
156.14,0.0
156.35,2.0
156.55,3.0
156.76,1.0
156.96,1.0
157.16,0.0
157.37,3.0
157.57,2.0
157.77,0.0
157.98,1.0
158.18,0.0
158.38,2.0
158.59,1.0
158.79,2.0
158.99,2.0
159.2,1.0
159.4,7.0
159.6,1.0
159.81,0.0
160.01,2.0
160.21,5.0
160.42,1.0
160.62,5.0
160.82,5.0
161.03,1.0
161.23,3.0
161.43,2.0
161.64,1.0
161.84,0.0
162.05,0.0
162.25,2.0
162.45,0.0
162.66,4.0
162.86,2.0
163.06,1.0
163.27,3.0
163.47,2.0
163.67,1.0
163.88,3.0
164.08,5.0
164.28,3.0
164.49,3.0
164.69,0.0
164.89,1.0
165.1,5.0
165.3,4.0
165.5,1.0
165.71,2.0
165.91,2.0
166.11,1.0
166.32,0.0
166.52,1.0
166.72,2.0
166.93,1.0
167.13,2.0
167.33,0.0
167.54,1.0
167.74,4.0
167.95,2.0
168.15,3.0
168.35,2.0
168.56,0.0
168.76,0.0
168.96,3.0
169.17,3.0
169.37,0.0
169.57,2.0
169.78,2.0
169.98,2.0
170.18,2.0
170.39,2.0
170.59,0.0
170.79,1.0
171.0,3.0
171.2,4.0
171.4,2.0
171.61,3.0
171.81,3.0
172.01,1.0
172.22,1.0
172.42,2.0
172.62,1.0
172.83,1.0
173.03,2.0
173.23,2.0
173.44,1.0
173.64,1.0
173.85,0.0
174.05,2.0
174.25,3.0
174.46,2.0
174.66,0.0
174.86,3.0
175.07,0.0
175.27,1.0
175.47,1.0
175.68,0.0
175.88,3.0
176.08,2.0
176.29,1.0
176.49,5.0
176.69,3.0
176.9,1.0
177.1,4.0
177.3,2.0
177.51,2.0
177.71,2.0
177.91,0.0
178.12,1.0
178.32,2.0
178.52,2.0
178.73,1.0
178.93,1.0
179.13,0.0
179.34,2.0
179.54,2.0
179.74,0.0
179.95,4.0
180.15,2.0
180.36,3.0
180.56,1.0
180.76,6.0
180.97,3.0
181.17,1.0
181.37,3.0
181.58,3.0
181.78,3.0
181.98,0.0
182.19,1.0
182.39,3.0
182.59,0.0
182.8,0.0
183.0,2.0
183.2,4.0
183.41,1.0
183.61,2.0
183.81,5.0
184.02,2.0
184.22,3.0
184.42,1.0
184.63,2.0
184.83,1.0
185.03,4.0
185.24,1.0
185.44,2.0
185.64,3.0
185.85,3.0
186.05,3.0
186.26,3.0
186.46,1.0
186.66,5.0
186.87,0.0
187.07,2.0
187.27,2.0
187.48,0.0
187.68,1.0
187.88,3.0
188.09,3.0
188.29,0.0
188.49,1.0
188.7,3.0
188.9,2.0
189.1,2.0
189.31,2.0
189.51,2.0
189.71,2.0
189.92,3.0
190.12,2.0
190.32,1.0
190.53,0.0
190.73,1.0
190.93,3.0
191.14,2.0
191.34,0.0
191.54,2.0
191.75,2.0
191.95,3.0
192.16,3.0
192.36,2.0
192.56,2.0
192.77,3.0
192.97,2.0
193.17,0.0
193.38,2.0
193.58,1.0
193.78,1.0
193.99,0.0
194.19,1.0
194.39,3.0
194.6,1.0
194.8,5.0
195.0,1.0
195.21,0.0
195.41,3.0
195.61,1.0
195.82,1.0
196.02,5.0
196.22,0.0
196.43,0.0
196.63,1.0
196.83,3.0
197.04,1.0
197.24,2.0
197.44,2.0
197.65,1.0
197.85,3.0
198.05,1.0
198.26,1.0
198.46,0.0
198.67,4.0
198.87,0.0
199.07,2.0
199.28,3.0
199.48,1.0
199.68,1.0
199.89,4.0
200.09,3.0
200.29,1.0
200.5,2.0
200.7,2.0
200.9,3.0
201.11,0.0
201.31,1.0
201.51,1.0
201.72,4.0
201.92,1.0
202.12,3.0
202.33,6.0
202.53,2.0
202.73,4.0
202.94,1.0
203.14,2.0
203.34,1.0
203.55,0.0
203.75,2.0
203.95,0.0
204.16,2.0
204.36,4.0
204.57,5.0
204.77,2.0
204.97,0.0
205.18,1.0
205.38,2.0
205.58,1.0
205.79,1.0
205.99,1.0
206.19,1.0
206.4,1.0
206.6,2.0
206.8,1.0
207.01,0.0
207.21,4.0
207.41,1.0
207.62,1.0
207.82,2.0
208.02,1.0
208.23,4.0
208.43,4.0
208.63,0.0
208.84,3.0
209.04,6.0
209.24,1.0
209.45,1.0
209.65,3.0
209.85,1.0
210.06,1.0
210.26,1.0
210.46,2.0
210.67,0.0
210.87,1.0
211.08,1.0
211.28,0.0
211.48,2.0
211.69,3.0
211.89,1.0
212.09,1.0
212.3,1.0
212.5,4.0
212.7,2.0
212.91,2.0
213.11,1.0
213.31,0.0
213.52,1.0
213.72,1.0
213.92,1.0
214.13,1.0
214.33,4.0
214.53,2.0
214.74,2.0
214.94,1.0
215.14,0.0
215.35,0.0
215.55,2.0
215.75,1.0
215.96,4.0
216.16,2.0
216.36,1.0
216.57,2.0
216.77,0.0
216.97,1.0
217.18,2.0
217.38,2.0
217.59,3.0
217.79,2.0
217.99,3.0
218.2,0.0
218.4,3.0
218.6,1.0
218.81,2.0
219.01,3.0
219.21,0.0
219.42,0.0
219.62,2.0
219.82,1.0
220.03,2.0
220.23,0.0
220.43,3.0
220.64,4.0
220.84,0.0
221.04,3.0
221.25,0.0
221.45,1.0
221.65,1.0
221.86,1.0
222.06,1.0
222.26,2.0
222.47,1.0
222.67,1.0
222.87,1.0
223.08,1.0
223.28,0.0
223.48,1.0
223.69,2.0
223.89,0.0
224.1,4.0
224.3,4.0
224.5,1.0
224.71,0.0
224.91,1.0
225.11,1.0
225.32,1.0
225.52,0.0
225.72,1.0
225.93,2.0
226.13,2.0
226.33,2.0
226.54,0.0
226.74,1.0
226.94,0.0
227.15,1.0
227.35,1.0
227.55,0.0
227.76,3.0
227.96,2.0
228.16,2.0
228.37,1.0
228.57,1.0
228.77,3.0
228.98,0.0
229.18,0.0
229.38,4.0
229.59,2.0
229.79,0.0
229.99,0.0
230.2,2.0
230.4,1.0
230.6,0.0
230.81,1.0
231.01,4.0
231.22,2.0
231.42,4.0
231.62,5.0
231.83,2.0
232.03,0.0
232.23,1.0
232.44,0.0
232.64,1.0
232.84,0.0
233.05,1.0
233.25,2.0
233.45,0.0
233.66,0.0
233.86,4.0
234.06,2.0
234.27,1.0
234.47,1.0
234.67,0.0
234.88,0.0
235.08,2.0
235.28,1.0
235.49,1.0
235.69,1.0
235.89,0.0
236.1,1.0
236.3,2.0
236.5,2.0
236.71,2.0
236.91,1.0
237.11,0.0
237.32,1.0
237.52,1.0
237.73,1.0
237.93,0.0
238.13,0.0
238.34,1.0
238.54,3.0
238.74,3.0
238.95,2.0
239.15,4.0
239.35,0.0
239.56,1.0
239.76,0.0
239.96,0.0
240.17,0.0
240.37,1.0
240.57,1.0
240.78,0.0
240.98,2.0
241.18,3.0
241.39,1.0
241.59,1.0
241.79,1.0
242.0,1.0
242.2,0.0
242.4,0.0
242.61,1.0
242.81,0.0
243.01,0.0
243.22,1.0
243.42,0.0
243.62,0.0
243.83,2.0
244.03,2.0
244.23,4.0
244.44,1.0
244.64,2.0
244.85,0.0
245.05,3.0
245.25,1.0
245.46,0.0
245.66,1.0
245.86,0.0
246.07,1.0
246.27,1.0
246.47,3.0
246.68,0.0
246.88,2.0
247.08,1.0
247.29,0.0
247.49,0.0
247.69,2.0
247.9,1.0
248.1,1.0
248.3,0.0
248.51,0.0
248.71,1.0
248.91,0.0
249.12,0.0
249.32,1.0
249.52,2.0
249.73,0.0
249.93,0.0
250.13,0.0
250.34,2.0
250.54,0.0
250.74,1.0
250.95,2.0
251.15,0.0
251.35,0.0
251.56,2.0
251.76,0.0
251.97,0.0
252.17,0.0
252.37,0.0
252.58,0.0
252.78,0.0
252.98,1.0
253.19,2.0
253.39,2.0
253.59,1.0
253.8,0.0
254.0,0.0
254.2,3.0
254.41,0.0
254.61,2.0
254.81,0.0
255.02,0.0
255.22,0.0
255.42,2.0
255.63,3.0
255.83,1.0
256.03,1.0
256.24,1.0
256.44,2.0
256.64,0.0
256.85,0.0
257.05,3.0
257.25,0.0
257.46,1.0
257.66,0.0
257.86,1.0
258.07,0.0
258.27,2.0
258.47,2.0
258.68,0.0
258.88,0.0
259.09,2.0
259.29,0.0
259.49,1.0
259.7,0.0
259.9,2.0
260.1,1.0
260.31,1.0
260.51,0.0
260.71,0.0
260.92,2.0
261.12,0.0
261.32,0.0
261.53,3.0
261.73,1.0
261.93,1.0
262.14,1.0
262.34,2.0
262.54,1.0
262.75,0.0
262.95,0.0
263.15,1.0
263.36,1.0
263.56,0.0
263.76,2.0
263.97,2.0
264.17,0.0
264.37,0.0
264.58,0.0
264.78,0.0
264.98,0.0
265.19,1.0
265.39,0.0
265.59,2.0
265.8,3.0
266.0,1.0
266.21,1.0
266.41,0.0
266.61,2.0
266.82,1.0
267.02,1.0
267.22,1.0
267.43,0.0
267.63,0.0
267.83,1.0
268.04,1.0
268.24,1.0
268.44,0.0
268.65,0.0
268.85,1.0
269.05,0.0
269.26,1.0
269.46,0.0
269.66,0.0
269.87,1.0
270.07,1.0
270.27,2.0
270.48,0.0
270.68,1.0
270.88,0.0
271.09,0.0
271.29,0.0
271.49,1.0
271.7,2.0
271.9,2.0
272.1,3.0
272.31,0.0
272.51,1.0
272.71,0.0
272.92,0.0
273.12,0.0
273.32,3.0
273.53,2.0
273.73,1.0
273.94,1.0
274.14,0.0
274.34,1.0
274.55,0.0
274.75,2.0
274.95,1.0
275.16,0.0
275.36,0.0
275.56,1.0
275.77,1.0
275.97,2.0
276.17,0.0
276.38,2.0
276.58,0.0
276.78,0.0
276.99,0.0
277.19,0.0
277.39,0.0
277.6,0.0
277.8,1.0
278.0,1.0
278.21,2.0
278.41,0.0
278.61,0.0
278.82,1.0
279.02,1.0
279.22,1.0
279.43,0.0
279.63,1.0
279.83,0.0
280.04,0.0
280.24,1.0
280.44,1.0
280.65,1.0
280.85,0.0
281.05,1.0
281.26,1.0
281.46,1.0
281.67,0.0
281.87,1.0
282.07,1.0
282.28,0.0
282.48,0.0
282.68,2.0
282.89,0.0
283.09,1.0
283.29,0.0
283.5,1.0
283.7,1.0
283.9,1.0
284.11,0.0
284.31,2.0
284.51,2.0
284.72,0.0
284.92,1.0
285.12,1.0
285.33,2.0
285.53,0.0
285.73,2.0
285.94,2.0
286.14,0.0
286.34,1.0
286.55,0.0
286.75,0.0
286.95,1.0
287.16,0.0
287.36,1.0
287.56,0.0
287.77,0.0
287.97,0.0
288.17,0.0
288.38,1.0
288.58,0.0
288.78,1.0
288.99,1.0
289.19,1.0
289.4,1.0
289.6,1.0
289.8,3.0
290.01,0.0
290.21,0.0
290.41,0.0
290.62,0.0
290.82,0.0
291.02,3.0
291.23,0.0
291.43,0.0
291.63,1.0
291.84,1.0
292.04,0.0
292.24,2.0
292.45,1.0
292.65,1.0
292.85,1.0
293.06,1.0
293.26,0.0
293.46,1.0
293.67,0.0
293.87,0.0
294.07,1.0
294.28,0.0
294.48,0.0
294.68,2.0
294.89,2.0
295.09,1.0
295.29,2.0
295.5,1.0
295.7,3.0
295.9,2.0
296.11,0.0
296.31,1.0
296.51,0.0
296.72,1.0
296.92,1.0
297.13,0.0
297.33,1.0
297.53,1.0
297.74,1.0
297.94,0.0
298.14,0.0
298.35,1.0
298.55,0.0
298.75,0.0
298.96,2.0
299.16,0.0
299.36,1.0
299.57,1.0
299.77,0.0
299.97,1.0
300.18,1.0
300.38,0.0
300.58,0.0
300.79,0.0
300.99,0.0
301.19,0.0
301.4,0.0
301.6,1.0
301.8,1.0
302.01,0.0
302.21,0.0
302.41,0.0
302.62,0.0
302.82,1.0
303.02,2.0
303.23,1.0
303.43,1.0
303.63,0.0
303.84,1.0
304.04,0.0
304.24,0.0
304.45,0.0
304.65,0.0
304.85,0.0
305.06,1.0
305.26,2.0
305.47,1.0
305.67,1.0
305.87,0.0
306.08,0.0
306.28,0.0
306.48,0.0
306.69,2.0
306.89,0.0
307.09,0.0
307.3,0.0
307.5,0.0
307.7,3.0
307.91,0.0
308.11,0.0
308.31,1.0
308.52,1.0
308.72,0.0
308.92,0.0
309.13,0.0
309.33,1.0
309.53,0.0
309.74,0.0
309.94,0.0
310.14,1.0
310.35,0.0
310.55,0.0
310.75,2.0
310.96,0.0
311.16,1.0
311.36,1.0
311.57,0.0
311.77,1.0
311.97,1.0
312.18,1.0
312.38,1.0
312.58,2.0
312.79,0.0
312.99,0.0
313.19,1.0
313.4,1.0
313.6,0.0
313.81,1.0
314.01,1.0
314.21,1.0
314.42,1.0
314.62,3.0
314.82,1.0
315.03,1.0
315.23,2.0
315.43,0.0
315.64,1.0
315.84,0.0
316.04,2.0
316.25,0.0
316.45,0.0
316.65,2.0
316.86,1.0
317.06,0.0
317.26,1.0
317.47,1.0
317.67,0.0
317.87,0.0
318.08,0.0
318.28,0.0
318.48,0.0
318.69,0.0
318.89,1.0
319.09,0.0
319.3,0.0
319.5,0.0
319.7,0.0
319.91,1.0
320.11,1.0
320.31,0.0
320.52,0.0
320.72,0.0
320.92,1.0
321.13,0.0
321.33,0.0
321.53,0.0
321.74,0.0
321.94,2.0
322.15,2.0
322.35,0.0
322.55,2.0
322.76,1.0
322.96,0.0
323.16,0.0
323.37,1.0
323.57,0.0
323.77,0.0
323.98,0.0
324.18,0.0
324.38,0.0
324.59,1.0
324.79,1.0
324.99,0.0
325.2,0.0
325.4,0.0
325.6,0.0
325.81,0.0
326.01,0.0
326.21,2.0
326.42,0.0
326.62,1.0
326.82,0.0
327.03,0.0
327.23,0.0
327.43,0.0
327.64,0.0
327.84,0.0
328.04,0.0
328.25,0.0
328.45,0.0
328.65,0.0
328.86,1.0
329.06,1.0
329.26,0.0
329.47,1.0
329.67,0.0
329.87,0.0
330.08,0.0
330.28,1.0
330.48,0.0
330.69,0.0
330.89,1.0
331.1,1.0
331.3,0.0
331.5,0.0
331.71,0.0
331.91,1.0
332.11,0.0
332.32,2.0
332.52,0.0
332.72,1.0
332.93,1.0
333.13,0.0
333.33,0.0
333.54,1.0
333.74,1.0
333.94,0.0
334.15,1.0
334.35,0.0
334.55,1.0
334.76,2.0
334.96,1.0
335.16,0.0
335.37,1.0
335.57,1.0
335.77,1.0
335.98,1.0
336.18,1.0
336.38,0.0
336.59,1.0
336.79,0.0
336.99,0.0
337.2,1.0
337.4,2.0
337.6,2.0
337.81,0.0
338.01,0.0
338.21,4.0
338.42,1.0
338.62,5.0
338.82,2.0
339.03,0.0
339.23,0.0
339.43,0.0
339.64,0.0
339.84,2.0
340.05,0.0
340.25,0.0
340.45,1.0
340.66,0.0
340.86,0.0
341.06,1.0
341.27,1.0
341.47,5.0
341.67,1.0
341.88,0.0
342.08,0.0
342.28,0.0
342.49,0.0
342.69,2.0
342.89,0.0
343.1,0.0
343.3,0.0
343.5,1.0
343.71,0.0
343.91,0.0
344.11,0.0
344.32,0.0
344.52,2.0
344.72,0.0
344.93,0.0
345.13,2.0
345.33,0.0
345.54,0.0
345.74,0.0
345.94,0.0
346.15,0.0
346.35,0.0
346.55,2.0
346.76,0.0
346.96,0.0
347.16,1.0
347.37,0.0
347.57,1.0
347.77,0.0
347.98,1.0
348.18,2.0
348.38,0.0
348.59,0.0
348.79,0.0
349.0,0.0
349.2,0.0
349.4,1.0
349.61,1.0
349.81,0.0
350.01,0.0
350.22,0.0
350.42,0.0
350.62,2.0
350.83,0.0
351.03,1.0
351.23,2.0
351.44,1.0
351.64,2.0
351.84,6.0
352.05,6.0
352.25,6.0
352.45,0.0
352.66,3.0
352.86,1.0
353.06,0.0
353.27,0.0
353.47,1.0
353.67,0.0
353.88,1.0
354.08,2.0
354.28,0.0
354.49,1.0
354.69,0.0
354.89,1.0
355.1,0.0
355.3,1.0
355.5,0.0
355.71,0.0
355.91,1.0
356.11,1.0
356.32,0.0
356.52,0.0
356.72,0.0
356.93,0.0
357.13,1.0
357.33,0.0
357.54,1.0
357.74,0.0
357.94,0.0
358.15,0.0
358.35,1.0
358.56,1.0
358.76,0.0
358.96,1.0
359.17,2.0
359.37,0.0
359.57,1.0
359.78,0.0
359.98,0.0
360.18,0.0
360.39,0.0
360.59,0.0
360.79,2.0
361.0,1.0
361.2,2.0
361.4,0.0
361.61,0.0
361.81,2.0
362.01,1.0
362.22,1.0
362.42,0.0
362.62,1.0
362.83,0.0
363.03,1.0
363.23,0.0
363.44,0.0
363.64,0.0
363.84,0.0
364.05,1.0
364.25,0.0
364.45,0.0
364.66,3.0
364.86,0.0
365.06,1.0
365.27,0.0
365.47,0.0
365.67,0.0
365.88,0.0
366.08,1.0
366.28,0.0
366.49,0.0
366.69,0.0
366.89,0.0
367.1,0.0
367.3,0.0
367.5,0.0
367.71,0.0
367.91,2.0
368.11,0.0
368.32,0.0
368.52,0.0
368.73,0.0
368.93,0.0
369.13,2.0
369.34,0.0
369.54,0.0
369.74,0.0
369.95,0.0
370.15,1.0
370.35,1.0
370.56,1.0
370.76,1.0
370.96,0.0
371.17,1.0
371.37,1.0
371.57,0.0
371.78,1.0
371.98,0.0
372.18,0.0
372.39,0.0
372.59,0.0
372.79,0.0
373.0,0.0
373.2,2.0
373.4,0.0
373.61,0.0
373.81,0.0
374.01,0.0
374.22,0.0
374.42,0.0
374.62,1.0
374.83,0.0
375.03,0.0
375.23,0.0
375.44,0.0
375.64,2.0
375.84,0.0
376.05,0.0
376.25,2.0
376.45,0.0
376.66,0.0
376.86,0.0
377.06,0.0
377.27,0.0
377.47,0.0
377.67,0.0
377.88,0.0
378.08,0.0
378.28,1.0
378.49,0.0
378.69,0.0
378.9,1.0
379.1,1.0
379.3,1.0
379.51,1.0
379.71,1.0
379.91,0.0
380.12,0.0
380.32,1.0
380.52,1.0
380.73,1.0
380.93,1.0
381.13,0.0
381.34,0.0
381.54,0.0
381.74,0.0
381.95,0.0
382.15,1.0
382.35,0.0
382.56,0.0
382.76,0.0
382.96,1.0
383.17,0.0
383.37,0.0
383.57,1.0
383.78,1.0
383.98,0.0
384.18,0.0
384.39,0.0
384.59,1.0
384.79,0.0
385.0,0.0
385.2,0.0
385.4,0.0
385.61,0.0
385.81,0.0
386.01,1.0
386.22,0.0
386.42,0.0
386.62,1.0
386.83,1.0
387.03,1.0
387.23,0.0
387.44,0.0
387.64,0.0
387.84,1.0
388.05,0.0
388.25,1.0
388.45,0.0
388.66,0.0
388.86,0.0
389.06,1.0
389.27,0.0
389.47,1.0
389.68,2.0
389.88,2.0
390.08,0.0
390.29,0.0
390.49,0.0
390.69,0.0
390.9,1.0
391.1,0.0
391.3,0.0
391.51,0.0
391.71,1.0
391.91,1.0
392.12,0.0
392.32,0.0
392.52,1.0
392.73,0.0
392.93,0.0
393.13,0.0
393.34,1.0
393.54,0.0
393.74,0.0
393.95,1.0
394.15,0.0
394.35,0.0
394.56,1.0
394.76,1.0
394.96,0.0
395.17,1.0
395.37,0.0
395.57,0.0
395.78,0.0
395.98,0.0
396.18,1.0
396.39,0.0
396.59,0.0
396.79,2.0
397.0,0.0
397.2,1.0
397.4,0.0
397.61,0.0
397.81,0.0
398.01,1.0
398.22,0.0
398.42,1.0
398.62,1.0
398.83,0.0
399.03,0.0
399.23,0.0
399.44,2.0
399.64,1.0
399.84,1.0
400.05,0.0
400.25,0.0
400.46,0.0
400.66,0.0
400.86,0.0
401.07,0.0
401.27,0.0
401.47,0.0
401.68,0.0
401.88,0.0
402.08,0.0
402.29,1.0
402.49,0.0
402.69,0.0
402.9,0.0
403.1,1.0
403.3,0.0
403.51,0.0
403.71,0.0
403.91,0.0
404.12,0.0
404.32,0.0
404.52,0.0
404.73,2.0
404.93,0.0
405.13,0.0
405.34,0.0
405.54,0.0
405.74,1.0
405.95,0.0
406.15,2.0
406.35,0.0
406.56,0.0
406.76,0.0
406.96,0.0
407.17,1.0
407.37,1.0
407.57,1.0
407.78,1.0
407.98,1.0
408.18,0.0
408.39,1.0
408.59,0.0
408.79,0.0
409.0,0.0
409.2,0.0
409.4,0.0
409.61,0.0
409.81,1.0
410.01,0.0
410.22,1.0
410.42,1.0
410.62,0.0
410.83,0.0
411.03,1.0
411.23,1.0
411.44,0.0
411.64,0.0
411.84,0.0
412.05,1.0
412.25,0.0
412.46,2.0
412.66,1.0
412.86,1.0
413.07,1.0
413.27,0.0
413.47,2.0
413.68,0.0
413.88,0.0
414.08,1.0
414.29,1.0
414.49,0.0
414.69,1.0
414.9,0.0
415.1,0.0
415.3,1.0
415.51,2.0
415.71,0.0
415.91,0.0
416.12,1.0
416.32,1.0
416.52,1.0
416.73,1.0
416.93,1.0
417.13,0.0
417.34,2.0
417.54,1.0
417.74,0.0
417.95,2.0
418.15,0.0
418.35,0.0
418.56,0.0
418.76,0.0
418.96,0.0
419.17,0.0
419.37,1.0
419.57,0.0
419.78,0.0
419.98,1.0
420.18,0.0
420.39,0.0
420.59,0.0
420.79,0.0
421.0,0.0
421.2,0.0
421.4,1.0
421.61,0.0
421.81,1.0
422.01,0.0
422.22,0.0
422.42,0.0
422.62,2.0
422.83,2.0
423.03,0.0
423.23,1.0
423.44,0.0
423.64,0.0
423.84,1.0
424.05,0.0
424.25,3.0
424.46,0.0
424.66,1.0
424.86,0.0
425.07,1.0
425.27,0.0
425.47,0.0
425.68,0.0
425.88,1.0
426.08,0.0
426.29,1.0
426.49,0.0
426.69,0.0
426.9,2.0
427.1,0.0
427.3,1.0
427.51,1.0
427.71,0.0
427.91,1.0
428.12,0.0
428.32,0.0
428.52,0.0
428.73,0.0
428.93,0.0
429.13,0.0
429.34,0.0
429.54,1.0
429.74,0.0
429.95,0.0
430.15,0.0
430.35,0.0
430.56,0.0
430.76,0.0
430.96,0.0
431.17,0.0
431.37,0.0
431.57,0.0
431.78,0.0
431.98,0.0
432.18,0.0
432.39,0.0
432.59,0.0
432.79,1.0
433.0,0.0
433.2,0.0
433.4,1.0
433.61,0.0
433.81,0.0
434.01,0.0
434.22,1.0
434.42,0.0
434.62,0.0
434.83,1.0
435.03,0.0
435.23,1.0
435.44,0.0
435.64,0.0
435.84,1.0
436.05,0.0
436.25,1.0
436.45,0.0
436.66,0.0
436.86,0.0
437.07,1.0
437.27,1.0
437.47,0.0
437.68,0.0
437.88,2.0
438.08,0.0
438.29,0.0
438.49,0.0
438.69,0.0
438.9,1.0
439.1,0.0
439.3,1.0
439.51,0.0
439.71,0.0
439.91,0.0
440.12,0.0
440.32,0.0
440.52,0.0
440.73,0.0
440.93,0.0
441.13,0.0
441.34,0.0
441.54,1.0
441.74,0.0
441.95,0.0
442.15,0.0
442.35,0.0
442.56,0.0
442.76,0.0
442.96,0.0
443.17,1.0
443.37,0.0
443.57,0.0
443.78,2.0
443.98,0.0
444.18,1.0
444.39,1.0
444.59,0.0
444.79,0.0
445.0,1.0
445.2,0.0
445.4,0.0
445.61,2.0
445.81,0.0
446.01,0.0
446.22,0.0
446.42,0.0
446.62,1.0
446.83,0.0
447.03,0.0
447.23,0.0
447.44,0.0
447.64,0.0
447.84,0.0
448.05,0.0
448.25,0.0
448.45,1.0
448.66,0.0
448.86,1.0
449.06,1.0
449.27,0.0
449.47,0.0
449.67,0.0
449.88,2.0
450.08,0.0
450.28,0.0
450.49,2.0
450.69,1.0
450.9,0.0
451.1,0.0
451.3,0.0
451.51,0.0
451.71,1.0
451.91,0.0
452.12,0.0
452.32,1.0
452.52,0.0
452.73,0.0
452.93,0.0
453.13,0.0
453.34,0.0
453.54,2.0
453.74,0.0
453.95,0.0
454.15,1.0
454.35,0.0
454.56,0.0
454.76,0.0
454.96,0.0
455.17,1.0
455.37,0.0
455.57,1.0
455.78,2.0
455.98,0.0
456.18,1.0
456.39,0.0
456.59,0.0
456.79,0.0
457.0,0.0
457.2,0.0
457.4,1.0
457.61,0.0
457.81,0.0
458.01,0.0
458.22,0.0
458.42,0.0
458.62,0.0
458.83,0.0
459.03,0.0
459.23,2.0
459.44,0.0
459.64,0.0
459.84,2.0
460.05,0.0
460.25,1.0
460.45,0.0
460.66,0.0
460.86,0.0
461.06,2.0
461.27,0.0
461.47,0.0
461.67,1.0
461.88,1.0
462.08,1.0
462.28,0.0
462.49,1.0
462.69,0.0
462.89,0.0
463.1,2.0
463.3,0.0
463.5,0.0
463.71,0.0
463.91,1.0
464.11,0.0
464.32,0.0
464.52,1.0
464.72,0.0
464.93,1.0
465.13,0.0
465.33,0.0
465.54,2.0
465.74,0.0
465.95,1.0
466.15,0.0
466.35,0.0
466.56,1.0
466.76,0.0
466.96,0.0
467.17,0.0
467.37,0.0
467.57,0.0
467.78,1.0
467.98,0.0
468.18,0.0
468.39,0.0
468.59,0.0
468.79,0.0
469.0,0.0
469.2,0.0
469.4,1.0
469.61,0.0
469.81,1.0
470.01,0.0
470.22,1.0
470.42,1.0
470.62,0.0
470.83,0.0
471.03,1.0
471.23,0.0
471.44,1.0
471.64,0.0
471.84,1.0
472.05,0.0
472.25,0.0
472.45,1.0
472.66,0.0
472.86,0.0
473.06,0.0
473.27,0.0
473.47,0.0
473.67,0.0
473.88,0.0
474.08,0.0
474.28,0.0
474.49,1.0
474.69,0.0
474.89,1.0
475.1,0.0
475.3,1.0
475.5,0.0
475.71,0.0
475.91,0.0
476.11,0.0
476.32,0.0
476.52,0.0
476.72,0.0
476.93,0.0
477.13,0.0
477.33,0.0
477.54,1.0
477.74,0.0
477.94,0.0
478.15,0.0
478.35,1.0
478.55,1.0
478.76,0.0
478.96,1.0
479.16,1.0
479.37,0.0
479.57,0.0
479.77,0.0
479.98,0.0
480.18,1.0
480.38,0.0
480.59,0.0
480.79,0.0
480.99,0.0
481.2,0.0
481.4,0.0
481.6,0.0
481.81,1.0
482.01,0.0
482.22,0.0
482.42,0.0
482.62,0.0
482.83,0.0
483.03,0.0
483.23,1.0
483.44,0.0
483.64,0.0
483.84,0.0
484.05,1.0
484.25,0.0
484.45,0.0
484.66,0.0
484.86,0.0
485.06,0.0
485.27,3.0
485.47,1.0
485.67,0.0
485.88,1.0
486.08,0.0
486.28,1.0
486.49,0.0
486.69,0.0
486.89,0.0
487.1,1.0
487.3,3.0
487.5,0.0
487.71,0.0
487.91,0.0
488.11,0.0
488.32,0.0
488.52,0.0
488.72,0.0
488.93,1.0
489.13,0.0
489.33,0.0
489.54,1.0
489.74,0.0
489.94,0.0
490.15,1.0
490.35,1.0
490.55,0.0
490.76,1.0
490.96,0.0
491.16,0.0
491.37,0.0
491.57,1.0
491.77,0.0
491.98,1.0
492.18,1.0
492.38,0.0
492.59,0.0
492.79,1.0
492.99,0.0
493.2,0.0
493.4,2.0
493.6,0.0
493.81,0.0
494.01,0.0
494.21,1.0
494.42,0.0
494.62,0.0
494.82,0.0
495.03,1.0
495.23,0.0
495.43,0.0
495.64,0.0
495.84,1.0
496.04,0.0
496.25,0.0
496.45,1.0
496.65,1.0
496.86,1.0
497.06,1.0
497.26,0.0
497.47,0.0
497.67,2.0
497.87,1.0
498.08,0.0
498.28,2.0
498.48,1.0
498.69,0.0
498.89,0.0
499.09,0.0
499.3,1.0
499.5,0.0
499.71,1.0
499.91,0.0
500.11,1.0
500.32,0.0
500.52,0.0
500.72,2.0
500.93,0.0
501.13,0.0
501.33,0.0
501.54,0.0
501.74,0.0
501.94,0.0
502.15,1.0
502.35,0.0
502.55,0.0
502.76,0.0
502.96,0.0
503.16,0.0
503.37,0.0
503.57,1.0
503.77,0.0
503.98,0.0
504.18,1.0
504.38,0.0
504.59,0.0
504.79,0.0
504.99,0.0
505.2,0.0
505.4,0.0
505.6,1.0
505.81,0.0
506.01,1.0
506.21,0.0
506.42,0.0
506.62,0.0
506.82,2.0
507.03,0.0
507.23,0.0
507.43,0.0
507.64,0.0
507.84,1.0
508.04,1.0
508.25,0.0
508.45,0.0
508.65,1.0
508.86,0.0
509.06,2.0
509.26,1.0
509.47,1.0
509.67,1.0
509.87,1.0
510.08,1.0
510.28,0.0
510.48,0.0
510.69,0.0
510.89,1.0
511.09,0.0
511.3,0.0
511.5,0.0
511.7,1.0
511.91,0.0
512.11,1.0
512.31,0.0
512.52,1.0
512.72,0.0
512.92,0.0
513.13,0.0
513.33,1.0
513.53,0.0
513.74,0.0
513.94,0.0
514.14,1.0
514.35,0.0
514.55,0.0
514.75,0.0
514.96,0.0
515.16,0.0
515.36,0.0
515.57,0.0
515.77,0.0
515.97,0.0
516.18,0.0
516.38,0.0
516.58,1.0
516.79,0.0
516.99,0.0
517.19,0.0
517.4,0.0
517.6,0.0
517.8,0.0
518.01,1.0
518.21,0.0
518.41,0.0
518.62,0.0
518.82,0.0
519.02,0.0
519.23,1.0
519.43,0.0
519.63,1.0
519.84,0.0
520.04,1.0
520.25,0.0
520.45,0.0
520.65,0.0
520.86,0.0
521.06,0.0
521.26,0.0
521.47,0.0
521.67,1.0
521.87,0.0
522.08,0.0
522.28,0.0
522.48,0.0
522.69,0.0
522.89,0.0
523.09,0.0
523.3,2.0
523.5,0.0
523.7,0.0
523.91,0.0
524.11,0.0
524.31,0.0
524.52,0.0
524.72,0.0
524.92,1.0
525.13,1.0
525.33,0.0
525.53,1.0
525.74,0.0
525.94,0.0
526.14,0.0
526.35,1.0
526.55,0.0
526.75,0.0
526.96,0.0
527.16,1.0
527.36,0.0
527.57,1.0
527.77,0.0
527.97,0.0
528.18,1.0
528.38,0.0
528.58,0.0
528.79,0.0
528.99,0.0
529.19,0.0
529.4,1.0
529.6,0.0
529.8,0.0
530.01,1.0
530.21,0.0
530.41,0.0
530.62,0.0
530.82,0.0
531.02,0.0
531.23,1.0
531.43,0.0
531.63,1.0
531.84,1.0
532.04,0.0
532.24,1.0
532.45,1.0
532.65,0.0
532.85,0.0
533.06,0.0
533.26,0.0
533.46,0.0
533.67,0.0
533.87,2.0
534.07,1.0
534.28,0.0
534.48,0.0
534.68,1.0
534.89,0.0
535.09,0.0
535.29,0.0
535.5,0.0
535.7,0.0
535.9,0.0
536.11,0.0
536.31,2.0
536.51,0.0
536.72,0.0
536.92,0.0
537.12,0.0
537.33,0.0
537.53,0.0
537.73,1.0
537.94,0.0
538.14,0.0
538.34,1.0
538.55,0.0
538.75,0.0
538.95,0.0
539.16,0.0
539.36,1.0
539.56,0.0
539.77,1.0
539.97,1.0
540.17,0.0
540.38,0.0
540.58,0.0
540.78,0.0
540.99,0.0
541.19,1.0
541.39,1.0
541.6,0.0
541.8,0.0
542.0,2.0
542.21,0.0
542.41,0.0
542.61,1.0
542.82,0.0
543.02,0.0
543.22,0.0
543.43,0.0
543.63,0.0
543.84,0.0
544.04,1.0
544.24,0.0
544.45,1.0
544.65,0.0
544.85,1.0
545.06,0.0
545.26,0.0
545.46,0.0
545.67,0.0
545.87,0.0
546.07,1.0
546.28,0.0
546.48,0.0
546.68,0.0
546.89,0.0
547.09,0.0
547.29,1.0
547.5,0.0
547.7,0.0
547.9,0.0
548.11,0.0
548.31,1.0
548.51,0.0
548.72,0.0
548.92,0.0
549.12,0.0
549.33,0.0
549.53,0.0
549.73,0.0
549.94,0.0
550.14,1.0
550.34,0.0
550.55,0.0
550.75,1.0
550.95,0.0
551.16,0.0
551.36,0.0
551.56,0.0
551.77,0.0
551.97,0.0
552.17,0.0
552.38,0.0
552.58,0.0
552.78,0.0
552.99,0.0
553.19,0.0
553.39,0.0
553.6,0.0
553.8,0.0
554.0,0.0
554.21,0.0
554.41,1.0
554.61,0.0
554.82,1.0
555.02,0.0
555.22,0.0
555.43,0.0
555.63,0.0
555.83,0.0
556.04,0.0
556.24,0.0
556.44,1.0
556.65,0.0
556.85,0.0
557.05,0.0
557.26,0.0
557.46,0.0
557.66,1.0
557.87,0.0
558.07,0.0
558.27,0.0
558.48,0.0
558.68,0.0
558.88,0.0
559.09,2.0
559.29,0.0
559.49,0.0
559.7,0.0
559.9,0.0
560.1,0.0
560.31,1.0
560.51,0.0
560.71,1.0
560.92,0.0
561.12,2.0
561.32,0.0
561.53,0.0
561.73,0.0
561.93,0.0
562.14,0.0
562.34,0.0
562.54,0.0
562.75,0.0
562.95,0.0
563.15,0.0
563.36,0.0
563.56,0.0
563.76,1.0
563.97,0.0
564.17,0.0
564.37,0.0
564.58,0.0
564.78,0.0
564.98,1.0
565.19,0.0
565.39,1.0
565.59,0.0
565.8,0.0
566.0,0.0
566.2,0.0
566.41,1.0
566.61,0.0
566.81,0.0
567.02,0.0
567.22,0.0
567.42,1.0
567.63,0.0
567.83,0.0
568.03,0.0
568.24,0.0
568.44,0.0
568.64,0.0
568.85,0.0
569.05,0.0
569.25,0.0
569.46,0.0
569.66,0.0
569.86,1.0
570.07,0.0
570.27,0.0
570.47,0.0
570.68,0.0
570.88,0.0
571.08,0.0
571.29,1.0
571.49,0.0
571.69,0.0
571.9,0.0
572.1,0.0
572.3,0.0
572.51,0.0
572.71,0.0
572.91,1.0
573.12,0.0
573.32,1.0
573.52,0.0
573.73,0.0
573.93,0.0
574.13,0.0
574.34,1.0
574.54,2.0
574.74,0.0
574.95,0.0
575.15,1.0
575.36,0.0
575.56,0.0
575.76,1.0
575.97,1.0
576.17,0.0
576.37,0.0
576.58,0.0
576.78,0.0
576.98,1.0
577.19,1.0
577.39,0.0
577.59,0.0
577.8,0.0
578.0,0.0
578.2,1.0
578.41,0.0
578.61,1.0
578.81,0.0
579.02,0.0
579.22,0.0
579.42,1.0
579.63,0.0
579.83,0.0
580.03,1.0
580.24,0.0
580.44,1.0
580.64,0.0
580.85,1.0
581.05,0.0
581.25,2.0
581.46,0.0
581.66,0.0
581.86,0.0
582.07,0.0
582.27,0.0
582.47,0.0
582.68,0.0
582.88,0.0
583.08,0.0
583.29,1.0
583.49,0.0
583.69,2.0
583.9,0.0
584.1,0.0
584.3,0.0
584.51,0.0
584.71,0.0
584.91,0.0
585.12,0.0
585.32,1.0
585.52,0.0
585.73,1.0
585.93,0.0
586.13,1.0
586.34,1.0
586.54,2.0
586.74,1.0
586.95,0.0
587.15,0.0
587.35,1.0
587.56,0.0
587.76,0.0
587.96,0.0
588.17,1.0
588.37,0.0
588.57,0.0
588.78,0.0
588.98,0.0
589.18,0.0
589.39,1.0
589.59,0.0
589.79,0.0
590.0,0.0
590.2,1.0
590.4,0.0
590.61,0.0
590.81,0.0
591.01,0.0
591.22,0.0
591.42,0.0
591.62,1.0
591.83,0.0
592.03,0.0
592.23,0.0
592.44,1.0
592.64,1.0
592.84,0.0
593.05,3.0
593.25,1.0
593.45,1.0
593.66,0.0
593.86,1.0
594.06,0.0
594.27,0.0
594.47,0.0
594.67,0.0
594.88,0.0
595.08,0.0
595.28,0.0
595.49,0.0
595.69,1.0
595.89,0.0
596.1,0.0
596.3,0.0
596.5,0.0
596.71,0.0
596.91,0.0
597.11,2.0
597.32,0.0
597.52,0.0
597.72,0.0
597.93,1.0
598.13,0.0
598.33,1.0
598.54,0.0
598.74,0.0
598.94,0.0
599.15,0.0
599.35,0.0
599.55,0.0
599.76,0.0
599.96,0.0
600.16,0.0
600.37,0.0
600.57,1.0
600.77,0.0
600.98,1.0
601.18,1.0
601.38,0.0
601.59,0.0
601.79,0.0
601.99,0.0
602.2,0.0
602.4,1.0
602.6,3.0
602.81,0.0
603.01,0.0
603.21,0.0
603.42,1.0
603.62,0.0
603.82,0.0
604.03,1.0
604.23,0.0
604.43,1.0
604.64,0.0
604.84,0.0
605.04,0.0
605.25,0.0
605.45,0.0
605.65,0.0
605.86,1.0
606.06,1.0
606.26,0.0
606.47,0.0
606.67,0.0
606.87,0.0
607.08,2.0
607.28,0.0
607.48,1.0
607.69,0.0
607.89,1.0
608.09,0.0
608.3,0.0
608.5,0.0
608.7,0.0
608.91,1.0
609.11,4.0
609.31,1.0
609.52,1.0
609.72,2.0
609.92,3.0
610.13,1.0
610.33,2.0
610.53,0.0
610.74,0.0
610.94,1.0
611.14,0.0
611.35,0.0
611.55,0.0
611.75,0.0
611.96,0.0
612.16,1.0
612.36,1.0
612.57,0.0
612.77,0.0
612.97,0.0
613.18,0.0
613.38,0.0
613.58,0.0
613.79,0.0
613.99,1.0
614.19,0.0
614.4,0.0
614.6,0.0
614.8,0.0
615.01,1.0
615.21,0.0
615.41,1.0
615.62,1.0
615.82,1.0
616.02,1.0
616.23,1.0
616.43,0.0
616.63,0.0
616.84,0.0
617.04,1.0
617.24,0.0
617.45,0.0
617.65,0.0
617.85,0.0
618.06,0.0
618.26,1.0
618.46,0.0
618.67,0.0
618.87,0.0
619.07,0.0
619.28,1.0
619.48,0.0
619.68,0.0
619.89,2.0
620.09,0.0
620.29,0.0
620.5,2.0
620.7,0.0
620.9,0.0
621.11,0.0
621.31,0.0
621.51,0.0
621.72,0.0
621.92,0.0
622.12,0.0
622.33,1.0
622.53,0.0
622.73,0.0
622.94,0.0
623.14,0.0
623.34,0.0
623.55,0.0
623.75,0.0
623.95,0.0
624.16,1.0
624.36,0.0
624.56,0.0
624.77,0.0
624.97,1.0
625.17,0.0
625.38,0.0
625.58,0.0
625.78,1.0
625.99,0.0
626.19,1.0
626.39,0.0
626.6,0.0
626.8,0.0
627.0,1.0
627.21,0.0
627.41,0.0
627.61,0.0
627.82,0.0
628.02,1.0
628.22,1.0
628.43,2.0
628.63,1.0
628.83,0.0
629.04,0.0
629.24,0.0
629.44,0.0
629.65,0.0
629.85,0.0
630.05,0.0
630.26,0.0
630.46,0.0
630.66,0.0
630.87,0.0
631.07,0.0
631.27,0.0
631.48,0.0
631.68,0.0
631.88,0.0
632.09,0.0
632.29,0.0
632.49,0.0
632.7,1.0
632.9,0.0
633.1,0.0
633.31,0.0
633.51,1.0
633.71,0.0
633.92,0.0
634.12,0.0
634.32,0.0
634.53,0.0
634.73,0.0
634.93,0.0
635.14,0.0
635.34,0.0
635.54,0.0
635.75,0.0
635.95,0.0
636.15,0.0
636.36,0.0
636.56,0.0
636.76,0.0
636.97,0.0
637.17,0.0
637.37,0.0
637.58,0.0
637.78,0.0
637.98,0.0
638.19,0.0
638.39,0.0
638.59,0.0
638.8,0.0
639.0,0.0
639.2,0.0
639.41,0.0
639.61,1.0
639.81,1.0
640.02,0.0
640.22,1.0
640.42,0.0
640.63,0.0
640.83,1.0
641.03,0.0
641.24,0.0
641.44,0.0
641.64,1.0
641.85,0.0
642.05,0.0
642.25,0.0
642.46,1.0
642.66,1.0
642.86,0.0
643.07,0.0
643.27,0.0
643.47,0.0
643.68,1.0
643.88,0.0
644.08,0.0
644.29,1.0
644.49,0.0
644.69,0.0
644.9,1.0
645.1,0.0
645.3,0.0
645.51,1.0
645.71,0.0
645.91,0.0
646.12,0.0
646.32,2.0
646.52,0.0
646.73,1.0
646.93,0.0
647.13,0.0
647.34,0.0
647.54,0.0
647.74,2.0
647.95,0.0
648.15,0.0
648.35,1.0
648.56,0.0
648.76,0.0
648.96,0.0
649.17,0.0
649.37,0.0
649.57,0.0
649.78,1.0
649.98,0.0
650.18,0.0
650.39,0.0
650.59,0.0
650.79,1.0
651.0,0.0
651.2,0.0
651.4,2.0
651.61,1.0
651.81,0.0
652.01,0.0
652.22,0.0
652.42,0.0
652.62,0.0
652.83,1.0
653.03,0.0
653.23,0.0
653.44,0.0
653.64,0.0
653.84,1.0
654.05,0.0
654.25,0.0
654.45,0.0
654.66,1.0
654.86,0.0
655.06,0.0
655.27,0.0
655.47,0.0
655.67,0.0
655.88,0.0
656.08,0.0
656.28,1.0
656.49,0.0
656.69,0.0
656.89,0.0
657.1,0.0
657.3,0.0
657.5,0.0
657.71,0.0
657.91,0.0
658.11,0.0
658.32,1.0
658.52,0.0
658.72,0.0
658.93,1.0
659.13,1.0
659.33,2.0
659.54,0.0
659.74,0.0
659.94,0.0
660.15,0.0
660.35,1.0
660.55,0.0
660.76,0.0
660.96,0.0
661.16,2.0
661.37,3.0
661.57,4.0
661.77,2.0
661.98,1.0
662.18,3.0
662.38,0.0
662.59,0.0
662.79,2.0
662.99,0.0
663.2,1.0
663.4,0.0
663.6,0.0
663.81,0.0
664.01,0.0
664.21,1.0
664.42,0.0
664.62,1.0
664.82,0.0
665.03,0.0
665.23,0.0
665.43,0.0
665.64,2.0
665.84,0.0
666.04,1.0
666.25,1.0
666.45,1.0
666.65,0.0
666.86,0.0
667.06,1.0
667.26,0.0
667.47,0.0
667.67,1.0
667.87,0.0
668.08,1.0
668.28,0.0
668.48,1.0
668.69,1.0
668.89,0.0
669.09,0.0
669.3,0.0
669.5,0.0
669.7,0.0
669.91,0.0
670.11,0.0
670.31,0.0
670.52,1.0
670.72,0.0
670.92,1.0
671.13,1.0
671.33,0.0
671.53,0.0
671.74,0.0
671.94,1.0
672.14,0.0
672.35,1.0
672.55,0.0
672.75,0.0
672.96,0.0
673.16,0.0
673.36,0.0
673.57,1.0
673.77,0.0
673.97,0.0
674.18,0.0
674.38,0.0
674.58,0.0
674.79,0.0
674.99,0.0
675.19,1.0
675.4,0.0
675.6,0.0
675.8,1.0
676.01,0.0
676.21,0.0
676.41,0.0
676.62,1.0
676.82,0.0
677.02,1.0
677.23,1.0
677.43,0.0
677.63,0.0
677.84,0.0
678.04,0.0
678.24,0.0
678.45,0.0
678.65,0.0
678.85,0.0
679.06,0.0
679.26,0.0
679.46,0.0
679.67,0.0
679.87,0.0
680.07,0.0
680.28,0.0
680.48,0.0
680.68,0.0
680.89,0.0
681.09,0.0
681.29,1.0
681.5,0.0
681.7,1.0
681.9,0.0
682.11,1.0
682.31,0.0
682.51,0.0
682.72,0.0
682.92,0.0
683.12,0.0
683.33,0.0
683.53,0.0
683.73,0.0
683.94,0.0
684.14,0.0
684.34,0.0
684.55,1.0
684.75,0.0
684.95,2.0
685.16,0.0
685.36,1.0
685.56,0.0
685.77,1.0
685.97,0.0
686.17,0.0
686.38,0.0
686.58,0.0
686.78,0.0
686.99,2.0
687.19,1.0
687.39,0.0
687.6,0.0
687.8,0.0
688.0,0.0
688.21,0.0
688.41,0.0
688.61,0.0
688.82,1.0
689.02,0.0
689.22,1.0
689.43,0.0
689.63,0.0
689.83,0.0
690.04,0.0
690.24,0.0
690.44,0.0
690.65,0.0
690.85,0.0
691.05,1.0
691.26,0.0
691.46,0.0
691.66,0.0
691.87,0.0
692.07,0.0
692.27,0.0
692.48,0.0
692.68,0.0
692.88,0.0
693.09,0.0
693.29,0.0
693.49,0.0
693.7,0.0
693.9,0.0
694.1,0.0
694.31,0.0
694.51,1.0
694.71,0.0
694.92,0.0
695.12,1.0
695.32,1.0
695.53,0.0
695.73,1.0
695.93,0.0
696.14,0.0
696.34,1.0
696.54,0.0
696.75,0.0
696.95,0.0
697.15,0.0
697.36,1.0
697.56,0.0
697.76,0.0
697.97,0.0
698.17,0.0
698.37,1.0
698.58,0.0
698.78,0.0
698.98,0.0
699.19,0.0
699.39,0.0
699.59,0.0
699.8,1.0
700.0,0.0
700.2,0.0
700.41,1.0
700.61,0.0
700.81,0.0
701.02,0.0
701.22,0.0
701.42,1.0
701.63,0.0
701.83,0.0
702.03,1.0
702.24,0.0
702.44,0.0
702.64,0.0
702.85,0.0
703.05,0.0
703.25,0.0
703.46,0.0
703.66,0.0
703.86,0.0
704.07,0.0
704.27,0.0
704.47,0.0
704.68,0.0
704.88,0.0
705.08,1.0
705.29,0.0
705.49,0.0
705.69,0.0
705.9,0.0
706.1,0.0
706.3,0.0
706.51,0.0
706.71,0.0
706.91,0.0
707.12,0.0
707.32,0.0
707.52,0.0
707.73,0.0
707.93,0.0
708.13,0.0
708.34,0.0
708.54,0.0
708.74,0.0
708.95,0.0
709.15,0.0
709.35,0.0
709.56,0.0
709.76,0.0
709.96,1.0
710.17,0.0
710.37,1.0
710.57,0.0
710.78,0.0
710.98,1.0
711.18,0.0
711.39,0.0
711.59,1.0
711.79,0.0
712.0,0.0
712.2,0.0
712.4,2.0
712.61,0.0
712.81,0.0
713.01,0.0
713.22,0.0
713.42,0.0
713.62,0.0
713.83,0.0
714.03,0.0
714.23,0.0
714.44,0.0
714.64,0.0
714.84,0.0
715.05,0.0
715.25,0.0
715.45,0.0
715.66,0.0
715.86,0.0
716.06,0.0
716.27,0.0
716.47,0.0
716.67,0.0
716.88,0.0
717.08,2.0
717.28,0.0
717.49,0.0
717.69,0.0
717.89,0.0
718.1,2.0
718.3,0.0
718.5,0.0
718.71,0.0
718.91,1.0
719.11,1.0
719.32,0.0
719.52,0.0
719.72,0.0
719.93,0.0
720.13,0.0
720.33,0.0
720.54,2.0
720.74,0.0
720.94,0.0
721.15,0.0
721.35,1.0
721.55,0.0
721.76,0.0
721.96,0.0
722.16,0.0
722.37,0.0
722.57,0.0
722.77,0.0
722.98,0.0
723.18,0.0
723.38,0.0
723.59,0.0
723.79,0.0
723.99,0.0
724.19,1.0
724.4,0.0
724.6,0.0
724.8,1.0
725.01,0.0
725.21,0.0
725.41,0.0
725.62,0.0
725.82,0.0
726.02,1.0
726.23,0.0
726.43,0.0
726.63,0.0
726.84,1.0
727.04,0.0
727.24,1.0
727.45,1.0
727.65,0.0
727.85,1.0
728.06,0.0
728.26,0.0
728.46,1.0
728.67,0.0
728.87,0.0
729.07,1.0
729.28,0.0
729.48,0.0
729.68,0.0
729.89,0.0
730.09,1.0
730.29,1.0
730.5,0.0
730.7,0.0
730.9,0.0
731.11,0.0
731.31,0.0
731.51,0.0
731.72,1.0
731.92,0.0
732.12,0.0
732.33,0.0
732.53,0.0
732.73,0.0
732.94,0.0
733.14,0.0
733.34,0.0
733.55,0.0
733.75,0.0
733.95,1.0
734.16,0.0
734.36,0.0
734.56,0.0
734.77,0.0
734.97,0.0
735.17,0.0
735.38,0.0
735.58,0.0
735.78,0.0
735.99,0.0
736.19,0.0
736.39,0.0
736.6,0.0
736.8,0.0
737.0,0.0
737.21,0.0
737.41,1.0
737.61,0.0
737.82,1.0
738.02,0.0
738.22,0.0
738.43,0.0
738.63,2.0
738.83,0.0
739.04,0.0
739.24,0.0
739.44,0.0
739.65,0.0
739.85,0.0
740.05,0.0
740.26,1.0
740.46,0.0
740.66,0.0
740.87,0.0
741.07,0.0
741.27,0.0
741.48,0.0
741.68,0.0
741.88,0.0
742.09,0.0
742.29,0.0
742.49,0.0
742.7,0.0
742.9,0.0
743.1,1.0
743.31,0.0
743.51,0.0
743.71,0.0
743.92,1.0
744.12,0.0
744.32,0.0
744.53,0.0
744.73,0.0
744.93,0.0
745.14,1.0
745.34,0.0
745.54,1.0
745.75,0.0
745.95,0.0
746.15,0.0
746.36,0.0
746.56,0.0
746.76,0.0
746.97,1.0
747.17,0.0
747.37,0.0
747.58,1.0
747.78,0.0
747.98,0.0
748.19,0.0
748.39,0.0
748.59,0.0
748.8,0.0
749.0,1.0
749.2,0.0
749.41,0.0
749.61,0.0
749.81,1.0
750.02,0.0
750.22,0.0
750.42,0.0
750.63,0.0
750.83,0.0
751.03,0.0
751.24,0.0
751.44,1.0
751.64,0.0
751.85,0.0
752.05,0.0
752.25,1.0
752.46,0.0
752.66,0.0
752.86,0.0
753.07,0.0
753.27,0.0
753.47,0.0
753.68,0.0
753.88,0.0
754.08,0.0
754.29,0.0
754.49,0.0
754.69,1.0
754.9,1.0
755.1,1.0
755.3,0.0
755.5,0.0
755.71,0.0
755.91,0.0
756.11,0.0
756.32,0.0
756.52,0.0
756.72,0.0
756.93,0.0
757.13,0.0
757.33,0.0
757.54,0.0
757.74,1.0
757.94,0.0
758.15,0.0
758.35,0.0
758.55,0.0
758.76,0.0
758.96,0.0
759.16,0.0
759.37,0.0
759.57,0.0
759.77,1.0
759.98,0.0
760.18,1.0
760.38,0.0
760.59,0.0
760.79,1.0
760.99,0.0
761.2,0.0
761.4,0.0
761.6,0.0
761.81,1.0
762.01,0.0
762.21,0.0
762.42,0.0
762.62,1.0
762.82,0.0
763.03,0.0
763.23,0.0
763.43,0.0
763.64,1.0
763.84,0.0
764.04,0.0
764.25,0.0
764.45,0.0
764.65,0.0
764.86,0.0
765.06,0.0
765.26,0.0
765.47,0.0
765.67,0.0
765.87,1.0
766.08,0.0
766.28,1.0
766.48,1.0
766.69,0.0
766.89,0.0
767.09,0.0
767.3,1.0
767.5,1.0
767.7,0.0
767.91,1.0
768.11,0.0
768.31,2.0
768.52,1.0
768.72,0.0
768.92,0.0
769.13,0.0
769.33,0.0
769.53,0.0
769.74,0.0
769.94,0.0
770.14,0.0
770.35,1.0
770.55,0.0
770.75,0.0
770.96,2.0
771.16,0.0
771.36,0.0
771.57,0.0
771.77,0.0
771.97,0.0
772.18,0.0
772.38,2.0
772.58,0.0
772.79,0.0
772.99,0.0
773.19,0.0
773.4,0.0
773.6,1.0
773.8,0.0
774.01,0.0
774.21,0.0
774.41,0.0
774.62,0.0
774.82,0.0
775.02,0.0
775.23,0.0
775.43,0.0
775.63,0.0
775.84,0.0
776.04,0.0
776.24,1.0
776.45,0.0
776.65,0.0
776.85,0.0
777.06,0.0
777.26,0.0
777.46,0.0
777.67,0.0
777.87,1.0
778.07,0.0
778.28,1.0
778.48,0.0
778.68,0.0
778.89,0.0
779.09,0.0
779.29,0.0
779.49,0.0
779.7,0.0
779.9,0.0
780.1,0.0
780.31,0.0
780.51,0.0
780.71,0.0
780.92,0.0
781.12,0.0
781.32,0.0
781.53,1.0
781.73,0.0
781.93,0.0
782.14,0.0
782.34,0.0
782.54,0.0
782.75,0.0
782.95,0.0
783.15,0.0
783.36,0.0
783.56,0.0
783.76,0.0
783.97,0.0
784.17,0.0
784.37,0.0
784.58,1.0
784.78,0.0
784.98,0.0
785.19,0.0
785.39,0.0
785.59,0.0
785.8,0.0
786.0,0.0
786.2,0.0
786.41,1.0
786.61,0.0
786.81,1.0
787.02,1.0
787.22,0.0
787.42,0.0
787.63,1.0
787.83,0.0
788.03,0.0
788.24,0.0
788.44,1.0
788.64,0.0
788.85,0.0
789.05,0.0
789.25,0.0
789.46,0.0
789.66,1.0
789.86,0.0
790.07,0.0
790.27,1.0
790.47,0.0
790.68,0.0
790.88,0.0
791.08,0.0
791.29,0.0
791.49,1.0
791.69,0.0
791.9,0.0
792.1,0.0
792.3,0.0
792.51,0.0
792.71,0.0
792.91,0.0
793.12,0.0
793.32,0.0
793.52,0.0
793.73,0.0
793.93,0.0
794.13,0.0
794.34,0.0
794.54,0.0
794.74,0.0
794.95,1.0
795.15,0.0
795.35,0.0
795.56,0.0
795.76,0.0
795.96,1.0
796.17,0.0
796.37,0.0
796.57,1.0
796.78,0.0
796.98,0.0
797.18,0.0
797.39,0.0
797.59,1.0
797.79,0.0
798.0,0.0
798.2,1.0
798.4,0.0
798.61,0.0
798.81,0.0
799.01,0.0
799.22,1.0
799.42,0.0
799.62,0.0
799.82,0.0
800.03,0.0
800.23,0.0
800.43,0.0
800.64,1.0
800.84,0.0
801.04,0.0
801.25,1.0
801.45,1.0
801.65,0.0
801.86,0.0
802.06,0.0
802.26,0.0
802.47,0.0
802.67,0.0
802.87,0.0
803.08,0.0
803.28,0.0
803.48,0.0
803.69,0.0
803.89,0.0
804.09,1.0
804.3,0.0
804.5,0.0
804.7,0.0
804.91,0.0
805.11,0.0
805.31,0.0
805.52,0.0
805.72,0.0
805.92,0.0
806.13,0.0
806.33,0.0
806.53,0.0
806.74,0.0
806.94,0.0
807.14,0.0
807.35,0.0
807.55,0.0
807.75,0.0
807.96,0.0
808.16,0.0
808.36,0.0
808.57,0.0
808.77,0.0
808.97,0.0
809.18,0.0
809.38,0.0
809.58,1.0
809.79,0.0
809.99,0.0
810.19,0.0
810.4,0.0
810.6,1.0
810.8,0.0
811.01,0.0
811.21,0.0
811.41,0.0
811.62,0.0
811.82,0.0
812.02,0.0
812.23,0.0
812.43,0.0
812.63,0.0
812.84,0.0
813.04,0.0
813.24,0.0
813.45,0.0
813.65,0.0
813.85,0.0
814.06,1.0
814.26,0.0
814.46,0.0
814.67,1.0
814.87,0.0
815.07,0.0
815.28,0.0
815.48,0.0
815.68,0.0
815.89,0.0
816.09,0.0
816.29,0.0
816.5,0.0
816.7,0.0
816.9,0.0
817.11,0.0
817.31,0.0
817.51,0.0
817.71,1.0
817.92,0.0
818.12,0.0
818.32,0.0
818.53,2.0
818.73,0.0
818.93,0.0
819.14,0.0
819.34,0.0
819.54,0.0
819.75,0.0
819.95,0.0
820.15,0.0
820.36,0.0
820.56,1.0
820.76,0.0
820.97,0.0
821.17,0.0
821.37,0.0
821.58,0.0
821.78,0.0
821.98,0.0
822.19,0.0
822.39,0.0
822.59,0.0
822.8,0.0
823.0,0.0
823.2,0.0
823.41,0.0
823.61,0.0
823.81,0.0
824.02,1.0
824.22,1.0
824.42,0.0
824.63,0.0
824.83,0.0
825.03,0.0
825.24,1.0
825.44,0.0
825.64,0.0
825.85,0.0
826.05,0.0
826.25,0.0
826.46,0.0
826.66,1.0
826.86,0.0
827.07,0.0
827.27,0.0
827.47,1.0
827.68,1.0
827.88,0.0
828.08,0.0
828.29,0.0
828.49,0.0
828.69,1.0
828.9,1.0
829.1,0.0
829.3,0.0
829.51,0.0
829.71,0.0
829.91,1.0
830.12,0.0
830.32,0.0
830.52,0.0
830.73,0.0
830.93,0.0
831.13,0.0
831.34,0.0
831.54,0.0
831.74,0.0
831.95,0.0
832.15,0.0
832.35,0.0
832.56,0.0
832.76,0.0
832.96,0.0
833.17,0.0
833.37,0.0
833.57,0.0
833.77,0.0
833.98,0.0
834.18,1.0
834.38,0.0
834.59,0.0
834.79,0.0
834.99,0.0
835.2,1.0
835.4,0.0
835.6,0.0
835.81,0.0
836.01,0.0
836.21,1.0
836.42,2.0
836.62,0.0
836.82,0.0
837.03,0.0
837.23,0.0
837.43,0.0
837.64,0.0
837.84,0.0
838.04,0.0
838.25,0.0
838.45,0.0
838.65,0.0
838.86,1.0
839.06,0.0
839.26,0.0
839.47,0.0
839.67,0.0
839.87,1.0
840.08,0.0
840.28,0.0
840.48,0.0
840.69,0.0
840.89,0.0
841.09,2.0
841.3,0.0
841.5,1.0
841.7,0.0
841.91,0.0
842.11,0.0
842.31,0.0
842.52,1.0
842.72,1.0
842.92,0.0
843.13,0.0
843.33,0.0
843.53,0.0
843.74,0.0
843.94,0.0
844.14,0.0
844.35,0.0
844.55,0.0
844.75,0.0
844.96,0.0
845.16,0.0
845.36,0.0
845.57,0.0
845.77,0.0
845.97,0.0
846.18,0.0
846.38,0.0
846.58,0.0
846.79,0.0
846.99,1.0
847.19,1.0
847.4,0.0
847.6,0.0
847.8,0.0
848.01,0.0
848.21,0.0
848.41,0.0
848.61,0.0
848.82,0.0
849.02,0.0
849.22,0.0
849.43,0.0
849.63,0.0
849.83,0.0
850.04,0.0
850.24,0.0
850.44,0.0
850.65,0.0
850.85,0.0
851.05,0.0
851.26,0.0
851.46,0.0
851.66,0.0
851.87,0.0
852.07,0.0
852.27,0.0
852.48,0.0
852.68,0.0
852.88,0.0
853.09,0.0
853.29,1.0
853.49,0.0
853.7,0.0
853.9,0.0
854.1,0.0
854.31,1.0
854.51,1.0
854.71,0.0
854.92,0.0
855.12,1.0
855.32,0.0
855.53,0.0
855.73,0.0
855.93,0.0
856.14,0.0
856.34,0.0
856.54,1.0
856.75,0.0
856.95,0.0
857.15,0.0
857.36,0.0
857.56,0.0
857.76,0.0
857.97,0.0
858.17,0.0
858.37,0.0
858.58,0.0
858.78,0.0
858.98,0.0
859.19,0.0
859.39,1.0
859.59,0.0
859.8,0.0
860.0,0.0
860.2,0.0
860.41,0.0
860.61,0.0
860.81,0.0
861.02,0.0
861.22,0.0
861.42,1.0
861.63,0.0
861.83,0.0
862.03,0.0
862.23,0.0
862.44,0.0
862.64,0.0
862.84,0.0
863.05,0.0
863.25,0.0
863.45,0.0
863.66,0.0
863.86,1.0
864.06,0.0
864.27,0.0
864.47,0.0
864.67,0.0
864.88,0.0
865.08,0.0
865.28,1.0
865.49,0.0
865.69,0.0
865.89,0.0
866.1,0.0
866.3,0.0
866.5,0.0
866.71,0.0
866.91,0.0
867.11,1.0
867.32,0.0
867.52,0.0
867.72,0.0
867.93,0.0
868.13,0.0
868.33,1.0
868.54,0.0
868.74,0.0
868.94,0.0
869.15,0.0
869.35,0.0
869.55,0.0
869.76,0.0
869.96,0.0
870.16,0.0
870.37,0.0
870.57,0.0
870.77,0.0
870.98,0.0
871.18,0.0
871.38,0.0
871.59,0.0
871.79,0.0
871.99,0.0
872.2,0.0
872.4,0.0
872.6,0.0
872.81,0.0
873.01,0.0
873.21,0.0
873.42,0.0
873.62,0.0
873.82,0.0
874.03,0.0
874.23,0.0
874.43,0.0
874.64,1.0
874.84,1.0
875.04,0.0
875.24,0.0
875.45,0.0
875.65,0.0
875.85,0.0
876.06,0.0
876.26,1.0
876.46,0.0
876.67,0.0
876.87,1.0
877.07,0.0
877.28,0.0
877.48,0.0
877.68,0.0
877.89,0.0
878.09,0.0
878.29,0.0
878.5,0.0
878.7,1.0
878.9,0.0
879.11,0.0
879.31,0.0
879.51,0.0
879.72,0.0
879.92,0.0
880.12,0.0
880.33,0.0
880.53,0.0
880.73,1.0
880.94,0.0
881.14,0.0
881.34,0.0
881.55,2.0
881.75,0.0
881.95,0.0
882.16,1.0
882.36,0.0
882.56,0.0
882.77,0.0
882.97,0.0
883.17,0.0
883.38,0.0
883.58,0.0
883.78,0.0
883.99,0.0
884.19,0.0
884.39,0.0
884.6,0.0
884.8,2.0
885.0,0.0
885.21,0.0
885.41,0.0
885.61,0.0
885.82,0.0
886.02,1.0
886.22,0.0
886.43,0.0
886.63,0.0
886.83,0.0
887.04,0.0
887.24,0.0
887.44,0.0
887.64,0.0
887.85,0.0
888.05,1.0
888.25,0.0
888.46,0.0
888.66,0.0
888.86,0.0
889.07,0.0
889.27,0.0
889.47,0.0
889.68,0.0
889.88,1.0
890.08,0.0
890.29,0.0
890.49,0.0
890.69,0.0
890.9,0.0
891.1,0.0
891.3,0.0
891.51,0.0
891.71,0.0
891.91,0.0
892.12,1.0
892.32,0.0
892.52,1.0
892.73,0.0
892.93,0.0
893.13,0.0
893.34,0.0
893.54,1.0
893.74,0.0
893.95,0.0
894.15,1.0
894.35,0.0
894.56,0.0
894.76,0.0
894.96,0.0
895.17,0.0
895.37,0.0
895.57,0.0
895.78,1.0
895.98,1.0
896.18,1.0
896.39,0.0
896.59,0.0
896.79,0.0
897.0,0.0
897.2,0.0
897.4,0.0
897.61,0.0
897.81,0.0
898.01,0.0
898.22,0.0
898.42,0.0
898.62,0.0
898.82,0.0
899.03,1.0
899.23,0.0
899.43,0.0
899.64,0.0
899.84,1.0
900.04,0.0
900.25,0.0
900.45,0.0
900.65,0.0
900.86,0.0
901.06,0.0
901.26,0.0
901.47,0.0
901.67,0.0
901.87,0.0
902.08,0.0
902.28,0.0
902.48,0.0
902.69,0.0
902.89,0.0
903.09,0.0
903.3,0.0
903.5,1.0
903.7,0.0
903.91,1.0
904.11,0.0
904.31,0.0
904.52,0.0
904.72,0.0
904.92,1.0
905.13,0.0
905.33,0.0
905.53,0.0
905.74,0.0
905.94,0.0
906.14,1.0
906.35,0.0
906.55,1.0
906.75,0.0
906.96,0.0
907.16,0.0
907.36,0.0
907.57,2.0
907.77,0.0
907.97,1.0
908.18,1.0
908.38,0.0
908.58,0.0
908.79,0.0
908.99,0.0
909.19,0.0
909.4,0.0
909.6,0.0
909.8,0.0
910.0,0.0
910.21,0.0
910.41,0.0
910.61,1.0
910.82,1.0
911.02,0.0
911.22,0.0
911.43,0.0
911.63,1.0
911.83,1.0
912.04,0.0
912.24,0.0
912.44,0.0
912.65,0.0
912.85,1.0
913.05,0.0
913.26,0.0
913.46,0.0
913.66,1.0
913.87,0.0
914.07,0.0
914.27,0.0
914.48,0.0
914.68,0.0
914.88,0.0
915.09,0.0
915.29,1.0
915.49,0.0
915.7,0.0
915.9,0.0
916.1,0.0
916.31,0.0
916.51,0.0
916.71,0.0
916.92,0.0
917.12,0.0
917.32,1.0
917.53,0.0
917.73,0.0
917.93,0.0
918.14,0.0
918.34,0.0
918.54,0.0
918.75,0.0
918.95,0.0
919.15,0.0
919.36,0.0
919.56,0.0
919.76,0.0
919.97,0.0
920.17,0.0
920.37,0.0
920.57,0.0
920.78,0.0
920.98,0.0
921.18,0.0
921.39,1.0
921.59,0.0
921.79,0.0
922.0,0.0
922.2,0.0
922.4,0.0
922.61,0.0
922.81,0.0
923.01,0.0
923.22,1.0
923.42,0.0
923.62,0.0
923.83,1.0
924.03,0.0
924.23,0.0
924.44,0.0
924.64,0.0
924.84,2.0
925.05,0.0
925.25,0.0
925.45,0.0
925.66,0.0
925.86,0.0
926.06,0.0
926.27,0.0
926.47,0.0
926.67,0.0
926.88,0.0
927.08,0.0
927.28,0.0
927.49,0.0
927.69,0.0
927.89,0.0
928.1,0.0
928.3,0.0
928.5,0.0
928.71,0.0
928.91,1.0
929.11,0.0
929.32,0.0
929.52,0.0
929.72,0.0
929.93,0.0
930.13,0.0
930.33,0.0
930.54,0.0
930.74,0.0
930.94,1.0
931.14,0.0
931.35,0.0
931.55,0.0
931.75,0.0
931.96,0.0
932.16,0.0
932.36,0.0
932.57,0.0
932.77,0.0
932.97,0.0
933.18,0.0
933.38,0.0
933.58,0.0
933.79,0.0
933.99,0.0
934.19,2.0
934.4,0.0
934.6,0.0
934.8,1.0
935.01,0.0
935.21,0.0
935.41,0.0
935.62,0.0
935.82,0.0
936.02,0.0
936.23,0.0
936.43,0.0
936.63,0.0
936.84,0.0
937.04,0.0
937.24,0.0
937.45,0.0
937.65,0.0
937.85,0.0
938.06,0.0
938.26,0.0
938.46,0.0
938.67,0.0
938.87,0.0
939.07,0.0
939.28,1.0
939.48,0.0
939.68,0.0
939.89,0.0
940.09,0.0
940.29,0.0
940.5,1.0
940.7,0.0
940.9,0.0
941.1,0.0
941.31,0.0
941.51,0.0
941.71,0.0
941.92,0.0
942.12,0.0
942.32,0.0
942.53,0.0
942.73,0.0
942.93,0.0
943.14,0.0
943.34,0.0
943.54,0.0
943.75,0.0
943.95,0.0
944.15,0.0
944.36,0.0
944.56,1.0
944.76,0.0
944.97,0.0
945.17,0.0
945.37,0.0
945.58,0.0
945.78,0.0
945.98,2.0
946.19,0.0
946.39,0.0
946.59,0.0
946.8,0.0
947.0,0.0
947.2,0.0
947.41,0.0
947.61,0.0
947.81,0.0
948.02,0.0
948.22,0.0
948.42,0.0
948.63,0.0
948.83,0.0
949.03,0.0
949.24,0.0
949.44,0.0
949.64,0.0
949.85,0.0
950.05,2.0
950.25,0.0
950.45,0.0
950.66,1.0
950.86,0.0
951.06,0.0
951.27,0.0
951.47,0.0
951.67,0.0
951.88,0.0
952.08,0.0
952.28,0.0
952.49,0.0
952.69,0.0
952.89,0.0
953.1,0.0
953.3,0.0
953.5,1.0
953.71,0.0
953.91,0.0
954.11,0.0
954.32,0.0
954.52,0.0
954.72,0.0
954.93,0.0
955.13,0.0
955.33,0.0
955.54,0.0
955.74,0.0
955.94,0.0
956.15,0.0
956.35,0.0
956.55,0.0
956.76,0.0
956.96,0.0
957.16,0.0
957.37,0.0
957.57,0.0
957.77,0.0
957.98,0.0
958.18,0.0
958.38,0.0
958.59,0.0
958.79,0.0
958.99,0.0
959.2,0.0
959.4,0.0
959.6,0.0
959.8,0.0
960.01,0.0
960.21,0.0
960.41,0.0
960.62,0.0
960.82,0.0
961.02,0.0
961.23,1.0
961.43,0.0
961.63,1.0
961.84,0.0
962.04,0.0
962.24,0.0
962.45,0.0
962.65,0.0
962.85,0.0
963.06,0.0
963.26,0.0
963.46,0.0
963.67,0.0
963.87,0.0
964.07,0.0
964.28,1.0
964.48,0.0
964.68,0.0
964.89,0.0
965.09,1.0
965.29,0.0
965.5,0.0
965.7,0.0
965.9,0.0
966.11,0.0
966.31,0.0
966.51,0.0
966.72,0.0
966.92,0.0
967.12,0.0
967.33,0.0
967.53,0.0
967.73,0.0
967.94,0.0
968.14,1.0
968.34,2.0
968.54,1.0
968.75,0.0
968.95,1.0
969.15,1.0
969.36,0.0
969.56,1.0
969.76,0.0
969.97,0.0
970.17,0.0
970.37,0.0
970.58,0.0
970.78,0.0
970.98,1.0
971.19,1.0
971.39,0.0
971.59,1.0
971.8,0.0
972.0,0.0
972.2,0.0
972.41,0.0
972.61,0.0
972.81,0.0
973.02,0.0
973.22,0.0
973.42,0.0
973.63,0.0
973.83,0.0
974.03,1.0
974.24,0.0
974.44,0.0
974.64,1.0
974.85,0.0
975.05,0.0
975.25,0.0
975.46,0.0
975.66,1.0
975.86,1.0
976.07,0.0
976.27,0.0
976.47,0.0
976.68,1.0
976.88,1.0
977.08,0.0
977.28,0.0
977.49,0.0
977.69,0.0
977.89,0.0
978.1,2.0
978.3,0.0
978.5,0.0
978.71,0.0
978.91,0.0
979.11,1.0
979.32,0.0
979.52,1.0
979.72,0.0
979.93,0.0
980.13,0.0
980.33,0.0
980.54,0.0
980.74,0.0
980.94,0.0
981.15,0.0
981.35,0.0
981.55,1.0
981.76,0.0
981.96,0.0
982.16,0.0
982.37,0.0
982.57,0.0
982.77,0.0
982.98,0.0
983.18,1.0
983.38,0.0
983.59,1.0
983.79,0.0
983.99,0.0
984.2,0.0
984.4,0.0
984.6,1.0
984.81,0.0
985.01,0.0
985.21,0.0
985.42,0.0
985.62,0.0
985.82,0.0
986.02,0.0
986.23,0.0
986.43,0.0
986.63,0.0
986.84,0.0
987.04,0.0
987.24,0.0
987.45,0.0
987.65,0.0
987.85,1.0
988.06,0.0
988.26,0.0
988.46,0.0
988.67,0.0
988.87,1.0
989.07,0.0
989.28,0.0
989.48,0.0
989.68,0.0
989.89,0.0
990.09,0.0
990.29,0.0
990.5,0.0
990.7,0.0
990.9,0.0
991.11,0.0
991.31,0.0
991.51,0.0
991.72,0.0
991.92,1.0
992.12,0.0
992.33,0.0
992.53,0.0
992.73,0.0
992.94,0.0
993.14,0.0
993.34,1.0
993.55,0.0
993.75,0.0
993.95,0.0
994.15,0.0
994.36,0.0
994.56,0.0
994.76,0.0
994.97,0.0
995.17,0.0
995.37,0.0
995.58,0.0
995.78,0.0
995.98,0.0
996.19,0.0
996.39,0.0
996.59,0.0
996.8,0.0
997.0,0.0
997.2,0.0
997.41,0.0
997.61,0.0
997.81,0.0
998.02,0.0
998.22,0.0
998.42,0.0
998.63,0.0
998.83,0.0
999.03,0.0
999.24,1.0
999.44,0.0
999.64,0.0
999.85,0.0
1000.05,0.0
1000.25,0.0
1000.46,0.0
1000.66,0.0
1000.86,0.0
1001.07,0.0
1001.27,1.0
1001.47,0.0
1001.68,0.0
1001.88,0.0
1002.08,0.0
1002.28,0.0
1002.49,0.0
1002.69,0.0
1002.89,0.0
1003.1,1.0
1003.3,0.0
1003.5,0.0
1003.71,0.0
1003.91,1.0
1004.11,0.0
1004.32,0.0
1004.52,0.0
1004.72,0.0
1004.93,0.0
1005.13,0.0
1005.33,0.0
1005.54,0.0
1005.74,0.0
1005.94,0.0
1006.15,0.0
1006.35,0.0
1006.55,1.0
1006.76,0.0
1006.96,0.0
1007.16,0.0
1007.37,0.0
1007.57,0.0
1007.77,0.0
1007.98,0.0
1008.18,0.0
1008.38,0.0
1008.59,0.0
1008.79,0.0
1008.99,0.0
1009.2,0.0
1009.4,0.0
1009.6,0.0
1009.81,0.0
1010.01,0.0
1010.21,1.0
1010.41,0.0
1010.62,0.0
1010.82,0.0
1011.02,0.0
1011.23,0.0
1011.43,0.0
1011.63,0.0
1011.84,0.0
1012.04,0.0
1012.24,0.0
1012.45,0.0
1012.65,0.0
1012.85,0.0
1013.06,0.0
1013.26,0.0
1013.46,0.0
1013.67,0.0
1013.87,0.0
1014.07,0.0
1014.28,0.0
1014.48,0.0
1014.68,0.0
1014.89,0.0
1015.09,0.0
1015.29,0.0
1015.5,0.0
1015.7,0.0
1015.9,0.0
1016.11,0.0
1016.31,0.0
1016.51,0.0
1016.72,0.0
1016.92,0.0
1017.12,0.0
1017.33,0.0
1017.53,0.0
1017.73,0.0
1017.93,0.0
1018.14,0.0
1018.34,0.0
1018.54,0.0
1018.75,0.0
1018.95,1.0
1019.15,0.0
1019.36,0.0
1019.56,0.0
1019.76,0.0
1019.97,0.0
1020.17,0.0
1020.37,0.0
1020.58,0.0
1020.78,0.0
1020.98,0.0
1021.19,0.0
1021.39,0.0
1021.59,0.0
1021.8,0.0
1022.0,0.0
1022.2,0.0
1022.41,0.0
1022.61,0.0
1022.81,0.0
1023.02,0.0
1023.22,1.0
1023.42,1.0
1023.63,0.0
1023.83,0.0
1024.03,0.0
1024.24,0.0
1024.44,0.0
1024.64,0.0
1024.85,0.0
1025.05,0.0
1025.25,0.0
1025.46,0.0
1025.66,0.0
1025.86,0.0
1026.06,0.0
1026.27,0.0
1026.47,0.0
1026.67,0.0
1026.88,1.0
1027.08,0.0
1027.28,0.0
1027.49,1.0
1027.69,0.0
1027.89,0.0
1028.1,0.0
1028.3,0.0
1028.5,0.0
1028.71,0.0
1028.91,0.0
1029.11,0.0
1029.32,0.0
1029.52,0.0
1029.72,1.0
1029.93,1.0
1030.13,0.0
1030.33,0.0
1030.54,0.0
1030.74,0.0
1030.94,0.0
1031.15,0.0
1031.35,0.0
1031.55,0.0
1031.76,0.0
1031.96,0.0
1032.16,1.0
1032.37,0.0
1032.57,0.0
1032.77,0.0
1032.97,0.0
1033.18,0.0
1033.38,0.0
1033.58,0.0
1033.79,0.0
1033.99,0.0
1034.19,0.0
1034.4,0.0
1034.6,0.0
1034.8,0.0
1035.01,1.0
1035.21,2.0
1035.41,1.0
1035.62,0.0
1035.82,0.0
1036.02,0.0
1036.23,0.0
1036.43,0.0
1036.63,0.0
1036.84,1.0
1037.04,0.0
1037.24,0.0
1037.45,0.0
1037.65,1.0
1037.85,0.0
1038.06,0.0
1038.26,0.0
1038.46,0.0
1038.67,0.0
1038.87,0.0
1039.07,0.0
1039.28,0.0
1039.48,0.0
1039.68,0.0
1039.89,0.0
1040.09,0.0
1040.29,0.0
1040.49,0.0
1040.7,0.0
1040.9,0.0
1041.1,0.0
1041.31,0.0
1041.51,0.0
1041.71,0.0
1041.92,0.0
1042.12,0.0
1042.32,0.0
1042.53,0.0
1042.73,0.0
1042.93,0.0
1043.14,0.0
1043.34,0.0
1043.54,0.0
1043.75,0.0
1043.95,0.0
1044.15,0.0
1044.36,0.0
1044.56,0.0
1044.76,0.0
1044.97,0.0
1045.17,0.0
1045.37,0.0
1045.58,0.0
1045.78,0.0
1045.98,0.0
1046.19,0.0
1046.39,0.0
1046.59,0.0
1046.8,0.0
1047.0,0.0
1047.2,0.0
1047.4,1.0
1047.61,0.0
1047.81,0.0
1048.01,0.0
1048.22,0.0
1048.42,0.0
1048.62,0.0
1048.83,0.0
1049.03,0.0
1049.23,0.0
1049.44,0.0
1049.64,1.0
1049.84,0.0
1050.05,2.0
1050.25,0.0
1050.45,0.0
1050.66,0.0
1050.86,0.0
1051.06,0.0
1051.27,0.0
1051.47,0.0
1051.67,0.0
1051.88,0.0
1052.08,0.0
1052.28,0.0
1052.49,0.0
1052.69,0.0
1052.89,0.0
1053.1,0.0
1053.3,0.0
1053.5,0.0
1053.71,0.0
1053.91,0.0
1054.11,0.0
1054.32,0.0
1054.52,0.0
1054.72,0.0
1054.92,0.0
1055.13,1.0
1055.33,0.0
1055.53,0.0
1055.74,1.0
1055.94,0.0
1056.14,0.0
1056.35,0.0
1056.55,0.0
1056.75,0.0
1056.96,0.0
1057.16,0.0
1057.36,0.0
1057.57,0.0
1057.77,0.0
1057.97,0.0
1058.18,0.0
1058.38,0.0
1058.58,0.0
1058.79,0.0
1058.99,0.0
1059.19,0.0
1059.4,0.0
1059.6,0.0
1059.8,0.0
1060.01,0.0
1060.21,1.0
1060.41,0.0
1060.62,0.0
1060.82,0.0
1061.02,0.0
1061.23,0.0
1061.43,0.0
1061.63,0.0
1061.83,0.0
1062.04,0.0
1062.24,0.0
1062.44,0.0
1062.65,1.0
1062.85,1.0
1063.05,0.0
1063.26,0.0
1063.46,0.0
1063.66,0.0
1063.87,0.0
1064.07,0.0
1064.27,0.0
1064.48,0.0
1064.68,0.0
1064.88,0.0
1065.09,0.0
1065.29,0.0
1065.49,0.0
1065.7,0.0
1065.9,0.0
1066.1,0.0
1066.31,0.0
1066.51,0.0
1066.71,2.0
1066.92,1.0
1067.12,0.0
1067.32,0.0
1067.53,0.0
1067.73,0.0
1067.93,0.0
1068.14,0.0
1068.34,0.0
1068.54,0.0
1068.74,0.0
1068.95,0.0
1069.15,0.0
1069.35,0.0
1069.56,0.0
1069.76,0.0
1069.96,1.0
1070.17,0.0
1070.37,0.0
1070.57,0.0
1070.78,0.0
1070.98,0.0
1071.18,0.0
1071.39,0.0
1071.59,0.0
1071.79,1.0
1072.0,0.0
1072.2,1.0
1072.4,0.0
1072.61,1.0
1072.81,1.0
1073.01,0.0
1073.22,0.0
1073.42,0.0
1073.62,0.0
1073.83,0.0
1074.03,0.0
1074.23,0.0
1074.44,1.0
1074.64,0.0
1074.84,1.0
1075.04,0.0
1075.25,0.0
1075.45,0.0
1075.65,0.0
1075.86,0.0
1076.06,0.0
1076.26,0.0
1076.47,0.0
1076.67,0.0
1076.87,0.0
1077.08,0.0
1077.28,1.0
1077.48,0.0
1077.69,0.0
1077.89,0.0
1078.09,0.0
1078.3,0.0
1078.5,0.0
1078.7,0.0
1078.91,0.0
1079.11,1.0
1079.31,0.0
1079.52,0.0
1079.72,0.0
1079.92,1.0
1080.13,0.0
1080.33,0.0
1080.53,0.0
1080.74,1.0
1080.94,1.0
1081.14,0.0
1081.35,0.0
1081.55,0.0
1081.75,0.0
1081.95,0.0
1082.16,0.0
1082.36,0.0
1082.56,0.0
1082.77,0.0
1082.97,0.0
1083.17,0.0
1083.38,0.0
1083.58,0.0
1083.78,1.0
1083.99,0.0
1084.19,0.0
1084.39,0.0
1084.6,0.0
1084.8,0.0
1085.0,0.0
1085.21,0.0
1085.41,0.0
1085.61,1.0
1085.82,0.0
1086.02,1.0
1086.22,0.0
1086.43,0.0
1086.63,0.0
1086.83,0.0
1087.04,1.0
1087.24,0.0
1087.44,0.0
1087.65,0.0
1087.85,0.0
1088.05,0.0
1088.25,0.0
1088.46,0.0
1088.66,0.0
1088.86,0.0
1089.07,0.0
1089.27,0.0
1089.47,0.0
1089.68,0.0
1089.88,0.0
1090.08,0.0
1090.29,0.0
1090.49,0.0
1090.69,0.0
1090.9,0.0
1091.1,0.0
1091.3,0.0
1091.51,0.0
1091.71,0.0
1091.91,0.0
1092.12,0.0
1092.32,0.0
1092.52,0.0
1092.73,1.0
1092.93,0.0
1093.13,0.0
1093.34,1.0
1093.54,0.0
1093.74,0.0
1093.95,0.0
1094.15,0.0
1094.35,0.0
1094.55,0.0
1094.76,0.0
1094.96,0.0
1095.16,1.0
1095.37,0.0
1095.57,0.0
1095.77,0.0
1095.98,0.0
1096.18,0.0
1096.38,0.0
1096.59,0.0
1096.79,1.0
1096.99,0.0
1097.2,0.0
1097.4,0.0
1097.6,1.0
1097.81,0.0
1098.01,0.0
1098.21,0.0
1098.42,1.0
1098.62,0.0
1098.82,1.0
1099.03,0.0
1099.23,0.0
1099.43,0.0
1099.64,0.0
1099.84,0.0
1100.04,0.0
1100.25,0.0
1100.45,0.0
1100.65,0.0
1100.85,0.0
1101.06,0.0
1101.26,0.0
1101.46,0.0
1101.67,0.0
1101.87,0.0
1102.07,0.0
1102.28,0.0
1102.48,0.0
1102.68,0.0
1102.89,0.0
1103.09,0.0
1103.29,0.0
1103.5,0.0
1103.7,1.0
1103.9,0.0
1104.11,0.0
1104.31,0.0
1104.51,1.0
1104.72,1.0
1104.92,0.0
1105.12,0.0
1105.33,0.0
1105.53,0.0
1105.73,0.0
1105.94,0.0
1106.14,0.0
1106.34,0.0
1106.55,0.0
1106.75,0.0
1106.95,1.0
1107.15,0.0
1107.36,0.0
1107.56,0.0
1107.76,0.0
1107.97,0.0
1108.17,0.0
1108.37,0.0
1108.58,1.0
1108.78,0.0
1108.98,0.0
1109.19,0.0
1109.39,0.0
1109.59,0.0
1109.8,0.0
1110.0,0.0
1110.2,0.0
1110.41,0.0
1110.61,0.0
1110.81,0.0
1111.02,0.0
1111.22,0.0
1111.42,0.0
1111.63,0.0
1111.83,0.0
1112.03,0.0
1112.24,1.0
1112.44,0.0
1112.64,0.0
1112.85,0.0
1113.05,0.0
1113.25,1.0
1113.45,1.0
1113.66,0.0
1113.86,0.0
1114.06,0.0
1114.27,0.0
1114.47,0.0
1114.67,0.0
1114.88,0.0
1115.08,0.0
1115.28,0.0
1115.49,0.0
1115.69,0.0
1115.89,0.0
1116.1,0.0
1116.3,0.0
1116.5,0.0
1116.71,0.0
1116.91,0.0
1117.11,1.0
1117.32,0.0
1117.52,0.0
1117.72,0.0
1117.93,0.0
1118.13,0.0
1118.33,0.0
1118.54,0.0
1118.74,0.0
1118.94,0.0
1119.14,0.0
1119.35,1.0
1119.55,1.0
1119.75,1.0
1119.96,1.0
1120.16,1.0
1120.36,0.0
1120.57,2.0
1120.77,0.0
1120.97,1.0
1121.18,0.0
1121.38,0.0
1121.58,1.0
1121.79,0.0
1121.99,0.0
1122.19,0.0
1122.4,0.0
1122.6,0.0
1122.8,0.0
1123.01,0.0
1123.21,0.0
1123.41,0.0
1123.62,0.0
1123.82,0.0
1124.02,0.0
1124.23,0.0
1124.43,0.0
1124.63,0.0
1124.84,0.0
1125.04,1.0
1125.24,0.0
1125.44,0.0
1125.65,0.0
1125.85,0.0
1126.05,0.0
1126.26,0.0
1126.46,0.0
1126.66,0.0
1126.87,1.0
1127.07,0.0
1127.27,0.0
1127.48,1.0
1127.68,1.0
1127.88,0.0
1128.09,0.0
1128.29,0.0
1128.49,0.0
1128.7,0.0
1128.9,0.0
1129.1,2.0
1129.31,0.0
1129.51,0.0
1129.71,0.0
1129.92,0.0
1130.12,0.0
1130.32,1.0
1130.53,0.0
1130.73,0.0
1130.93,0.0
1131.13,0.0
1131.34,0.0
1131.54,1.0
1131.74,0.0
1131.95,0.0
1132.15,1.0
1132.35,0.0
1132.56,0.0
1132.76,0.0
1132.96,1.0
1133.17,0.0
1133.37,1.0
1133.57,0.0
1133.78,0.0
1133.98,0.0
1134.18,0.0
1134.39,0.0
1134.59,0.0
1134.79,0.0
1135.0,0.0
1135.2,0.0
1135.4,0.0
1135.61,0.0
1135.81,0.0
1136.01,0.0
1136.22,0.0
1136.42,0.0
1136.62,0.0
1136.83,0.0
1137.03,0.0
1137.23,0.0
1137.43,0.0
1137.64,0.0
1137.84,0.0
1138.04,0.0
1138.25,0.0
1138.45,0.0
1138.65,0.0
1138.86,0.0
1139.06,0.0
1139.26,0.0
1139.47,0.0
1139.67,1.0
1139.87,0.0
1140.08,0.0
1140.28,0.0
1140.48,1.0
1140.69,1.0
1140.89,0.0
1141.09,0.0
1141.3,1.0
1141.5,0.0
1141.7,0.0
1141.91,0.0
1142.11,0.0
1142.31,0.0
1142.52,0.0
1142.72,0.0
1142.92,0.0
1143.12,0.0
1143.33,0.0
1143.53,0.0
1143.73,0.0
1143.94,0.0
1144.14,0.0
1144.34,0.0
1144.55,1.0
1144.75,0.0
1144.95,0.0
1145.16,0.0
1145.36,0.0
1145.56,0.0
1145.77,0.0
1145.97,1.0
1146.17,0.0
1146.38,0.0
1146.58,0.0
1146.78,1.0
1146.99,0.0
1147.19,0.0
1147.39,0.0
1147.6,0.0
1147.8,0.0
1148.0,0.0
1148.21,0.0
1148.41,0.0
1148.61,0.0
1148.81,0.0
1149.02,0.0
1149.22,0.0
1149.42,1.0
1149.63,0.0
1149.83,0.0
1150.03,0.0
1150.24,0.0
1150.44,0.0
1150.64,0.0
1150.85,0.0
1151.05,0.0
1151.25,0.0
1151.46,0.0
1151.66,1.0
1151.86,0.0
1152.07,0.0
1152.27,0.0
1152.47,0.0
1152.68,0.0
1152.88,0.0
1153.08,0.0
1153.29,0.0
1153.49,0.0
1153.69,0.0
1153.9,0.0
1154.1,1.0
1154.3,0.0
1154.5,0.0
1154.71,0.0
1154.91,0.0
1155.11,0.0
1155.32,1.0
1155.52,0.0
1155.72,0.0
1155.93,0.0
1156.13,0.0
1156.33,0.0
1156.54,0.0
1156.74,0.0
1156.94,0.0
1157.15,0.0
1157.35,0.0
1157.55,0.0
1157.76,0.0
1157.96,0.0
1158.16,0.0
1158.37,0.0
1158.57,0.0
1158.77,1.0
1158.98,0.0
1159.18,0.0
1159.38,0.0
1159.58,0.0
1159.79,0.0
1159.99,0.0
1160.19,0.0
1160.4,0.0
1160.6,0.0
1160.8,0.0
1161.01,0.0
1161.21,0.0
1161.41,0.0
1161.62,0.0
1161.82,0.0
1162.02,0.0
1162.23,0.0
1162.43,0.0
1162.63,0.0
1162.84,0.0
1163.04,0.0
1163.24,0.0
1163.45,0.0
1163.65,0.0
1163.85,1.0
1164.06,1.0
1164.26,0.0
1164.46,0.0
1164.67,0.0
1164.87,1.0
1165.07,0.0
1165.27,1.0
1165.48,0.0
1165.68,0.0
1165.88,0.0
1166.09,0.0
1166.29,0.0
1166.49,0.0
1166.7,0.0
1166.9,0.0
1167.1,0.0
1167.31,0.0
1167.51,0.0
1167.71,1.0
1167.92,1.0
1168.12,0.0
1168.32,0.0
1168.53,0.0
1168.73,0.0
1168.93,0.0
1169.14,1.0
1169.34,0.0
1169.54,0.0
1169.75,0.0
1169.95,0.0
1170.15,0.0
1170.36,0.0
1170.56,0.0
1170.76,1.0
1170.96,0.0
1171.17,0.0
1171.37,0.0
1171.57,1.0
1171.78,0.0
1171.98,0.0
1172.18,0.0
1172.39,0.0
1172.59,0.0
1172.79,0.0
1173.0,1.0
1173.2,0.0
1173.4,1.0
1173.61,1.0
1173.81,0.0
1174.01,0.0
1174.22,1.0
1174.42,0.0
1174.62,0.0
1174.83,0.0
1175.03,0.0
1175.23,0.0
1175.44,0.0
1175.64,0.0
1175.84,1.0
1176.04,1.0
1176.25,0.0
1176.45,0.0
1176.65,0.0
1176.86,0.0
1177.06,0.0
1177.26,0.0
1177.47,0.0
1177.67,0.0
1177.87,0.0
1178.08,0.0
1178.28,0.0
1178.48,0.0
1178.69,0.0
1178.89,0.0
1179.09,0.0
1179.3,1.0
1179.5,0.0
1179.7,0.0
1179.91,0.0
1180.11,1.0
1180.31,0.0
1180.52,0.0
1180.72,0.0
1180.92,0.0
1181.13,0.0
1181.33,0.0
1181.53,0.0
1181.73,0.0
1181.94,0.0
1182.14,0.0
1182.34,0.0
1182.55,0.0
1182.75,0.0
1182.95,1.0
1183.16,0.0
1183.36,0.0
1183.56,0.0
1183.77,0.0
1183.97,0.0
1184.17,0.0
1184.38,0.0
1184.58,0.0
1184.78,0.0
1184.99,0.0
1185.19,0.0
1185.39,0.0
1185.6,1.0
1185.8,0.0
1186.0,0.0
1186.21,0.0
1186.41,0.0
1186.61,0.0
1186.81,0.0
1187.02,0.0
1187.22,1.0
1187.42,0.0
1187.63,0.0
1187.83,0.0
1188.03,0.0
1188.24,0.0
1188.44,0.0
1188.64,0.0
1188.85,0.0
1189.05,0.0
1189.25,0.0
1189.46,0.0
1189.66,0.0
1189.86,0.0
1190.07,0.0
1190.27,0.0
1190.47,0.0
1190.68,0.0
1190.88,0.0
1191.08,0.0
1191.29,0.0
1191.49,0.0
1191.69,0.0
1191.89,0.0
1192.1,0.0
1192.3,0.0
1192.5,0.0
1192.71,0.0
1192.91,0.0
1193.11,0.0
1193.32,0.0
1193.52,0.0
1193.72,0.0
1193.93,0.0
1194.13,0.0
1194.33,0.0
1194.54,1.0
1194.74,0.0
1194.94,0.0
1195.15,0.0
1195.35,0.0
1195.55,0.0
1195.76,0.0
1195.96,0.0
1196.16,0.0
1196.37,0.0
1196.57,0.0
1196.77,0.0
1196.97,0.0
1197.18,0.0
1197.38,0.0
1197.58,0.0
1197.79,0.0
1197.99,0.0
1198.19,0.0
1198.4,0.0
1198.6,0.0
1198.8,0.0
1199.01,1.0
1199.21,0.0
1199.41,0.0
1199.62,1.0
1199.82,0.0
1200.02,0.0
1200.23,0.0
1200.43,0.0
1200.63,0.0
1200.84,0.0
1201.04,0.0
1201.24,0.0
1201.45,1.0
1201.65,0.0
1201.85,1.0
1202.06,0.0
1202.26,0.0
1202.46,0.0
1202.66,0.0
1202.87,0.0
1203.07,0.0
1203.27,0.0
1203.48,1.0
1203.68,0.0
1203.88,1.0
1204.09,0.0
1204.29,0.0
1204.49,0.0
1204.7,0.0
1204.9,0.0
1205.1,0.0
1205.31,1.0
1205.51,0.0
1205.71,0.0
1205.92,1.0
1206.12,1.0
1206.32,0.0
1206.53,0.0
1206.73,0.0
1206.93,0.0
1207.14,0.0
1207.34,0.0
1207.54,0.0
1207.74,0.0
1207.95,0.0
1208.15,0.0
1208.35,0.0
1208.56,0.0
1208.76,0.0
1208.96,0.0
1209.17,1.0
1209.37,0.0
1209.57,0.0
1209.78,0.0
1209.98,0.0
1210.18,0.0
1210.39,0.0
1210.59,0.0
1210.79,0.0
1211.0,0.0
1211.2,1.0
1211.4,0.0
1211.61,0.0
1211.81,0.0
1212.01,0.0
1212.22,0.0
1212.42,0.0
1212.62,0.0
1212.82,0.0
1213.03,0.0
1213.23,0.0
1213.43,2.0
1213.64,0.0
1213.84,0.0
1214.04,0.0
1214.25,0.0
1214.45,0.0
1214.65,0.0
1214.86,0.0
1215.06,0.0
1215.26,0.0
1215.47,0.0
1215.67,0.0
1215.87,0.0
1216.08,0.0
1216.28,0.0
1216.48,0.0
1216.69,0.0
1216.89,0.0
1217.09,0.0
1217.29,0.0
1217.5,0.0
1217.7,0.0
1217.9,0.0
1218.11,0.0
1218.31,0.0
1218.51,0.0
1218.72,0.0
1218.92,0.0
1219.12,0.0
1219.33,0.0
1219.53,0.0
1219.73,0.0
1219.94,1.0
1220.14,0.0
1220.34,0.0
1220.55,0.0
1220.75,0.0
1220.95,0.0
1221.16,0.0
1221.36,0.0
1221.56,0.0
1221.77,1.0
1221.97,1.0
1222.17,1.0
1222.37,0.0
1222.58,0.0
1222.78,0.0
1222.98,0.0
1223.19,0.0
1223.39,0.0
1223.59,0.0
1223.8,0.0
1224.0,0.0
1224.2,0.0
1224.41,0.0
1224.61,0.0
1224.81,0.0
1225.02,0.0
1225.22,0.0
1225.42,0.0
1225.63,0.0
1225.83,0.0
1226.03,0.0
1226.24,0.0
1226.44,0.0
1226.64,0.0
1226.85,0.0
1227.05,0.0
1227.25,0.0
1227.45,0.0
1227.66,0.0
1227.86,0.0
1228.06,0.0
1228.27,1.0
1228.47,0.0
1228.67,0.0
1228.88,0.0
1229.08,0.0
1229.28,1.0
1229.49,0.0
1229.69,0.0
1229.89,0.0
1230.1,0.0
1230.3,0.0
1230.5,0.0
1230.71,0.0
1230.91,0.0
1231.11,0.0
1231.32,0.0
1231.52,0.0
1231.72,0.0
1231.93,0.0
1232.13,1.0
1232.33,0.0
1232.53,0.0
1232.74,0.0
1232.94,0.0
1233.14,0.0
1233.35,0.0
1233.55,1.0
1233.75,0.0
1233.96,0.0
1234.16,0.0
1234.36,1.0
1234.57,0.0
1234.77,1.0
1234.97,0.0
1235.18,0.0
1235.38,0.0
1235.58,0.0
1235.79,0.0
1235.99,0.0
1236.19,0.0
1236.4,0.0
1236.6,0.0
1236.8,0.0
1237.0,1.0
1237.21,0.0
1237.41,0.0
1237.61,0.0
1237.82,0.0
1238.02,1.0
1238.22,1.0
1238.43,0.0
1238.63,1.0
1238.83,0.0
1239.04,0.0
1239.24,0.0
1239.44,1.0
1239.65,0.0
1239.85,1.0
1240.05,0.0
1240.26,0.0
1240.46,0.0
1240.66,0.0
1240.87,0.0
1241.07,1.0
1241.27,0.0
1241.48,0.0
1241.68,0.0
1241.88,0.0
1242.08,0.0
1242.29,0.0
1242.49,0.0
1242.69,0.0
1242.9,0.0
1243.1,1.0
1243.3,0.0
1243.51,0.0
1243.71,0.0
1243.91,0.0
1244.12,0.0
1244.32,0.0
1244.52,0.0
1244.73,0.0
1244.93,0.0
1245.13,0.0
1245.34,0.0
1245.54,0.0
1245.74,0.0
1245.95,0.0
1246.15,1.0
1246.35,0.0
1246.55,1.0
1246.76,0.0
1246.96,0.0
1247.16,0.0
1247.37,0.0
1247.57,0.0
1247.77,0.0
1247.98,0.0
1248.18,0.0
1248.38,0.0
1248.59,0.0
1248.79,0.0
1248.99,1.0
1249.2,0.0
1249.4,0.0
1249.6,0.0
1249.81,0.0
1250.01,0.0
1250.21,0.0
1250.42,0.0
1250.62,0.0
1250.82,0.0
1251.03,0.0
1251.23,0.0
1251.43,0.0
1251.63,0.0
1251.84,0.0
1252.04,0.0
1252.24,0.0
1252.45,0.0
1252.65,0.0
1252.85,1.0
1253.06,0.0
1253.26,0.0
1253.46,0.0
1253.67,0.0
1253.87,0.0
1254.07,0.0
1254.28,0.0
1254.48,0.0
1254.68,0.0
1254.89,0.0
1255.09,0.0
1255.29,0.0
1255.5,0.0
1255.7,0.0
1255.9,0.0
1256.1,0.0
1256.31,0.0
1256.51,0.0
1256.71,0.0
1256.92,0.0
1257.12,0.0
1257.32,1.0
1257.53,0.0
1257.73,0.0
1257.93,1.0
1258.14,0.0
1258.34,0.0
1258.54,0.0
1258.75,0.0
1258.95,0.0
1259.15,0.0
1259.36,0.0
1259.56,0.0
1259.76,0.0
1259.97,0.0
1260.17,0.0
1260.37,0.0
1260.57,0.0
1260.78,0.0
1260.98,1.0
1261.18,0.0
1261.39,0.0
1261.59,0.0
1261.79,0.0
1262.0,0.0
1262.2,0.0
1262.4,0.0
1262.61,0.0
1262.81,2.0
1263.01,0.0
1263.22,0.0
1263.42,0.0
1263.62,0.0
1263.83,0.0
1264.03,0.0
1264.23,0.0
1264.44,0.0
1264.64,0.0
1264.84,0.0
1265.04,0.0
1265.25,0.0
1265.45,0.0
1265.65,0.0
1265.86,0.0
1266.06,0.0
1266.26,0.0
1266.47,0.0
1266.67,0.0
1266.87,0.0
1267.08,0.0
1267.28,0.0
1267.48,0.0
1267.69,0.0
1267.89,0.0
1268.09,0.0
1268.3,1.0
1268.5,0.0
1268.7,0.0
1268.91,0.0
1269.11,0.0
1269.31,0.0
1269.52,0.0
1269.72,1.0
1269.92,0.0
1270.12,0.0
1270.33,0.0
1270.53,0.0
1270.73,0.0
1270.94,0.0
1271.14,0.0
1271.34,0.0
1271.55,1.0
1271.75,0.0
1271.95,0.0
1272.16,0.0
1272.36,0.0
1272.56,0.0
1272.77,0.0
1272.97,0.0
1273.17,0.0
1273.38,0.0
1273.58,0.0
1273.78,0.0
1273.99,0.0
1274.19,0.0
1274.39,0.0
1274.59,0.0
1274.8,0.0
1275.0,0.0
1275.2,0.0
1275.41,0.0
1275.61,0.0
1275.81,0.0
1276.02,0.0
1276.22,0.0
1276.42,0.0
1276.63,0.0
1276.83,1.0
1277.03,0.0
1277.24,0.0
1277.44,0.0
1277.64,0.0
1277.85,0.0
1278.05,0.0
1278.25,0.0
1278.46,0.0
1278.66,0.0
1278.86,1.0
1279.06,0.0
1279.27,0.0
1279.47,0.0
1279.67,0.0
1279.88,0.0
1280.08,1.0
1280.28,2.0
1280.49,0.0
1280.69,0.0
1280.89,0.0
1281.1,1.0
1281.3,1.0
1281.5,0.0
1281.71,0.0
1281.91,0.0
1282.11,0.0
1282.32,0.0
1282.52,0.0
1282.72,0.0
1282.93,0.0
1283.13,1.0
1283.33,0.0
1283.53,0.0
1283.74,0.0
1283.94,0.0
1284.14,0.0
1284.35,0.0
1284.55,0.0
1284.75,0.0
1284.96,0.0
1285.16,0.0
1285.36,0.0
1285.57,2.0
1285.77,0.0
1285.97,1.0
1286.18,0.0
1286.38,0.0
1286.58,0.0
1286.79,0.0
1286.99,0.0
1287.19,0.0
1287.4,0.0
1287.6,0.0
1287.8,0.0
1288.0,0.0
1288.21,0.0
1288.41,0.0
1288.61,0.0
1288.82,0.0
1289.02,0.0
1289.22,0.0
1289.43,0.0
1289.63,0.0
1289.83,0.0
1290.04,1.0
1290.24,0.0
1290.44,0.0
1290.65,0.0
1290.85,0.0
1291.05,0.0
1291.26,0.0
1291.46,0.0
1291.66,0.0
1291.87,0.0
1292.07,0.0
1292.27,0.0
1292.47,0.0
1292.68,0.0
1292.88,0.0
1293.08,1.0
1293.29,1.0
1293.49,0.0
1293.69,0.0
1293.9,0.0
1294.1,0.0
1294.3,0.0
1294.51,0.0
1294.71,0.0
1294.91,0.0
1295.12,0.0
1295.32,0.0
1295.52,0.0
1295.73,0.0
1295.93,0.0
1296.13,0.0
1296.34,0.0
1296.54,0.0
1296.74,0.0
1296.94,0.0
1297.15,0.0
1297.35,0.0
1297.55,0.0
1297.76,0.0
1297.96,0.0
1298.16,0.0
1298.37,0.0
1298.57,0.0
1298.77,0.0
1298.98,0.0
1299.18,0.0
1299.38,0.0
1299.59,0.0
1299.79,0.0
1299.99,0.0
1300.2,0.0
1300.4,0.0
1300.6,0.0
1300.8,0.0
1301.01,0.0
1301.21,0.0
1301.41,0.0
1301.62,0.0
1301.82,0.0
1302.02,0.0
1302.23,0.0
1302.43,0.0
1302.63,0.0
1302.84,0.0
1303.04,0.0
1303.24,0.0
1303.45,1.0
1303.65,0.0
1303.85,0.0
1304.06,0.0
1304.26,0.0
1304.46,0.0
1304.67,0.0
1304.87,0.0
1305.07,0.0
1305.27,0.0
1305.48,0.0
1305.68,0.0
1305.88,1.0
1306.09,0.0
1306.29,0.0
1306.49,0.0
1306.7,0.0
1306.9,0.0
1307.1,0.0
1307.31,0.0
1307.51,0.0
1307.71,0.0
1307.92,0.0
1308.12,0.0
1308.32,1.0
1308.53,0.0
1308.73,0.0
1308.93,0.0
1309.14,0.0
1309.34,0.0
1309.54,0.0
1309.74,0.0
1309.95,0.0
1310.15,0.0
1310.35,0.0
1310.56,0.0
1310.76,0.0
1310.96,0.0
1311.17,0.0
1311.37,0.0
1311.57,0.0
1311.78,0.0
1311.98,0.0
1312.18,0.0
1312.39,0.0
1312.59,0.0
1312.79,0.0
1313.0,0.0
1313.2,0.0
1313.4,0.0
1313.61,0.0
1313.81,1.0
1314.01,0.0
1314.21,0.0
1314.42,0.0
1314.62,0.0
1314.82,0.0
1315.03,0.0
1315.23,1.0
1315.43,0.0
1315.64,0.0
1315.84,0.0
1316.04,0.0
1316.25,0.0
1316.45,0.0
1316.65,0.0
1316.86,0.0
1317.06,0.0
1317.26,0.0
1317.47,0.0
1317.67,0.0
1317.87,0.0
1318.07,0.0
1318.28,0.0
1318.48,0.0
1318.68,0.0
1318.89,0.0
1319.09,0.0
1319.29,0.0
1319.5,0.0
1319.7,0.0
1319.9,0.0
1320.11,0.0
1320.31,0.0
1320.51,0.0
1320.72,0.0
1320.92,0.0
1321.12,0.0
1321.33,0.0
1321.53,0.0
1321.73,0.0
1321.94,0.0
1322.14,0.0
1322.34,0.0
1322.54,0.0
1322.75,0.0
1322.95,0.0
1323.15,1.0
1323.36,0.0
1323.56,0.0
1323.76,0.0
1323.97,0.0
1324.17,0.0
1324.37,0.0
1324.58,0.0
1324.78,0.0
1324.98,1.0
1325.19,0.0
1325.39,0.0
1325.59,0.0
1325.8,0.0
1326.0,0.0
1326.2,0.0
1326.4,0.0
1326.61,1.0
1326.81,0.0
1327.01,0.0
1327.22,0.0
1327.42,0.0
1327.62,0.0
1327.83,0.0
1328.03,0.0
1328.23,0.0
1328.44,0.0
1328.64,0.0
1328.84,0.0
1329.05,0.0
1329.25,0.0
1329.45,0.0
1329.66,0.0
1329.86,0.0
1330.06,0.0
1330.27,0.0
1330.47,0.0
1330.67,0.0
1330.87,0.0
1331.08,0.0
1331.28,0.0
1331.48,0.0
1331.69,0.0
1331.89,0.0
1332.09,0.0
1332.3,0.0
1332.5,0.0
1332.7,0.0
1332.91,0.0
1333.11,0.0
1333.31,0.0
1333.52,0.0
1333.72,1.0
1333.92,0.0
1334.13,0.0
1334.33,0.0
1334.53,0.0
1334.73,0.0
1334.94,0.0
1335.14,0.0
1335.34,0.0
1335.55,1.0
1335.75,0.0
1335.95,0.0
1336.16,0.0
1336.36,0.0
1336.56,0.0
1336.77,0.0
1336.97,1.0
1337.17,0.0
1337.38,0.0
1337.58,1.0
1337.78,0.0
1337.99,0.0
1338.19,0.0
1338.39,0.0
1338.6,0.0
1338.8,0.0
1339.0,0.0
1339.2,0.0
1339.41,0.0
1339.61,0.0
1339.81,0.0
1340.02,0.0
1340.22,0.0
1340.42,0.0
1340.63,0.0
1340.83,0.0
1341.03,0.0
1341.24,0.0
1341.44,0.0
1341.64,0.0
1341.85,0.0
1342.05,0.0
1342.25,0.0
1342.46,0.0
1342.66,0.0
1342.86,0.0
1343.06,0.0
1343.27,0.0
1343.47,0.0
1343.67,0.0
1343.88,0.0
1344.08,0.0
1344.28,0.0
1344.49,0.0
1344.69,0.0
1344.89,0.0
1345.1,0.0
1345.3,0.0
1345.5,0.0
1345.71,0.0
1345.91,0.0
1346.11,0.0
1346.32,0.0
1346.52,0.0
1346.72,0.0
1346.92,0.0
1347.13,0.0
1347.33,0.0
1347.53,0.0
1347.74,0.0
1347.94,0.0
1348.14,0.0
1348.35,0.0
1348.55,0.0
1348.75,0.0
1348.96,0.0
1349.16,0.0
1349.36,0.0
1349.57,0.0
1349.77,0.0
1349.97,0.0
1350.18,0.0
1350.38,0.0
1350.58,0.0
1350.79,0.0
1350.99,0.0
1351.19,1.0
1351.39,0.0
1351.6,0.0
1351.8,0.0
1352.0,0.0
1352.21,0.0
1352.41,0.0
1352.61,0.0
1352.82,0.0
1353.02,0.0
1353.22,0.0
1353.43,0.0
1353.63,0.0
1353.83,0.0
1354.04,0.0
1354.24,0.0
1354.44,0.0
1354.65,0.0
1354.85,0.0
1355.05,0.0
1355.25,0.0
1355.46,0.0
1355.66,0.0
1355.86,0.0
1356.07,0.0
1356.27,0.0
1356.47,0.0
1356.68,0.0
1356.88,0.0
1357.08,0.0
1357.29,0.0
1357.49,0.0
1357.69,0.0
1357.9,1.0
1358.1,0.0
1358.3,0.0
1358.51,0.0
1358.71,0.0
1358.91,0.0
1359.11,0.0
1359.32,0.0
1359.52,0.0
1359.72,0.0
1359.93,0.0
1360.13,0.0
1360.33,0.0
1360.54,0.0
1360.74,0.0
1360.94,0.0
1361.15,0.0
1361.35,0.0
1361.55,0.0
1361.76,1.0
1361.96,0.0
1362.16,0.0
1362.37,0.0
1362.57,0.0
1362.77,0.0
1362.97,0.0
1363.18,0.0
1363.38,0.0
1363.58,0.0
1363.79,0.0
1363.99,0.0
1364.19,1.0
1364.4,0.0
1364.6,0.0
1364.8,0.0
1365.01,0.0
1365.21,0.0
1365.41,0.0
1365.62,0.0
1365.82,0.0
1366.02,0.0
1366.23,0.0
1366.43,0.0
1366.63,0.0
1366.83,0.0
1367.04,0.0
1367.24,0.0
1367.44,0.0
1367.65,0.0
1367.85,0.0
1368.05,0.0
1368.26,0.0
1368.46,1.0
1368.66,0.0
1368.87,0.0
1369.07,0.0
1369.27,0.0
1369.48,0.0
1369.68,0.0
1369.88,0.0
1370.09,0.0
1370.29,0.0
1370.49,0.0
1370.7,0.0
1370.9,0.0
1371.1,1.0
1371.3,0.0
1371.51,0.0
1371.71,0.0
1371.91,1.0
1372.12,1.0
1372.32,0.0
1372.52,0.0
1372.73,0.0
1372.93,0.0
1373.13,0.0
1373.34,0.0
1373.54,0.0
1373.74,0.0
1373.95,0.0
1374.15,0.0
1374.35,0.0
1374.56,0.0
1374.76,0.0
1374.96,0.0
1375.16,0.0
1375.37,0.0
1375.57,0.0
1375.77,0.0
1375.98,0.0
1376.18,0.0
1376.38,0.0
1376.59,0.0
1376.79,0.0
1376.99,0.0
1377.2,0.0
1377.4,0.0
1377.6,0.0
1377.81,1.0
1378.01,0.0
1378.21,1.0
1378.42,0.0
1378.62,0.0
1378.82,0.0
1379.02,0.0
1379.23,0.0
1379.43,0.0
1379.63,0.0
1379.84,0.0
1380.04,0.0
1380.24,0.0
1380.45,0.0
1380.65,0.0
1380.85,0.0
1381.06,0.0
1381.26,0.0
1381.46,0.0
1381.67,1.0
1381.87,0.0
1382.07,0.0
1382.28,0.0
1382.48,1.0
1382.68,0.0
1382.88,0.0
1383.09,0.0
1383.29,0.0
1383.49,0.0
1383.7,0.0
1383.9,0.0
1384.1,0.0
1384.31,0.0
1384.51,0.0
1384.71,0.0
1384.92,0.0
1385.12,0.0
1385.32,0.0
1385.53,0.0
1385.73,0.0
1385.93,0.0
1386.14,0.0
1386.34,0.0
1386.54,0.0
1386.74,0.0
1386.95,0.0
1387.15,0.0
1387.35,0.0
1387.56,0.0
1387.76,0.0
1387.96,0.0
1388.17,0.0
1388.37,0.0
1388.57,0.0
1388.78,0.0
1388.98,0.0
1389.18,0.0
1389.39,0.0
1389.59,0.0
1389.79,0.0
1390.0,0.0
1390.2,0.0
1390.4,0.0
1390.6,0.0
1390.81,0.0
1391.01,0.0
1391.21,0.0
1391.42,0.0
1391.62,1.0
1391.82,0.0
1392.03,0.0
1392.23,0.0
1392.43,0.0
1392.64,1.0
1392.84,0.0
1393.04,0.0
1393.25,0.0
1393.45,0.0
1393.65,0.0
1393.86,1.0
1394.06,0.0
1394.26,0.0
1394.46,0.0
1394.67,0.0
1394.87,0.0
1395.07,0.0
1395.28,0.0
1395.48,0.0
1395.68,0.0
1395.89,0.0
1396.09,0.0
1396.29,0.0
1396.5,0.0
1396.7,0.0
1396.9,0.0
1397.11,0.0
1397.31,0.0
1397.51,0.0
1397.71,0.0
1397.92,0.0
1398.12,0.0
1398.32,0.0
1398.53,0.0
1398.73,0.0
1398.93,0.0
1399.14,0.0
1399.34,0.0
1399.54,0.0
1399.75,0.0
1399.95,0.0
1400.15,0.0
1400.36,0.0
1400.56,0.0
1400.76,0.0
1400.97,0.0
1401.17,0.0
1401.37,0.0
1401.57,0.0
1401.78,0.0
1401.98,0.0
1402.18,0.0
1402.39,0.0
1402.59,0.0
1402.79,0.0
1403.0,0.0
1403.2,0.0
1403.4,0.0
1403.61,0.0
1403.81,0.0
1404.01,0.0
1404.22,0.0
1404.42,0.0
1404.62,0.0
1404.83,0.0
1405.03,0.0
1405.23,1.0
1405.43,0.0
1405.64,0.0
1405.84,0.0
1406.04,0.0
1406.25,1.0
1406.45,0.0
1406.65,0.0
1406.86,0.0
1407.06,0.0
1407.26,0.0
1407.47,0.0
1407.67,0.0
1407.87,0.0
1408.08,1.0
1408.28,0.0
1408.48,0.0
1408.69,0.0
1408.89,0.0
1409.09,0.0
1409.29,0.0
1409.5,0.0
1409.7,0.0
1409.9,1.0
1410.11,0.0
1410.31,0.0
1410.51,0.0
1410.72,0.0
1410.92,0.0
1411.12,0.0
1411.33,0.0
1411.53,0.0
1411.73,0.0
1411.94,0.0
1412.14,0.0
1412.34,0.0
1412.55,0.0
1412.75,0.0
1412.95,0.0
1413.15,0.0
1413.36,0.0
1413.56,0.0
1413.76,0.0
1413.97,0.0
1414.17,0.0
1414.37,0.0
1414.58,0.0
1414.78,0.0
1414.98,0.0
1415.19,1.0
1415.39,0.0
1415.59,0.0
1415.8,0.0
1416.0,0.0
1416.2,0.0
1416.4,0.0
1416.61,0.0
1416.81,0.0
1417.01,0.0
1417.22,0.0
1417.42,0.0
1417.62,0.0
1417.83,0.0
1418.03,0.0
1418.23,0.0
1418.44,0.0
1418.64,0.0
1418.84,0.0
1419.05,0.0
1419.25,0.0
1419.45,0.0
1419.66,0.0
1419.86,0.0
1420.06,0.0
1420.26,0.0
1420.47,0.0
1420.67,0.0
1420.87,0.0
1421.08,0.0
1421.28,0.0
1421.48,0.0
1421.69,0.0
1421.89,0.0
1422.09,0.0
1422.3,0.0
1422.5,0.0
1422.7,0.0
1422.91,0.0
1423.11,0.0
1423.31,0.0
1423.52,0.0
1423.72,0.0
1423.92,0.0
1424.12,0.0
1424.33,0.0
1424.53,0.0
1424.73,0.0
1424.94,0.0
1425.14,0.0
1425.34,0.0
1425.55,0.0
1425.75,0.0
1425.95,0.0
1426.16,0.0
1426.36,0.0
1426.56,0.0
1426.77,0.0
1426.97,0.0
1427.17,0.0
1427.37,0.0
1427.58,0.0
1427.78,0.0
1427.98,0.0
1428.19,0.0
1428.39,0.0
1428.59,0.0
1428.8,0.0
1429.0,0.0
1429.2,0.0
1429.41,0.0
1429.61,0.0
1429.81,0.0
1430.02,0.0
1430.22,0.0
1430.42,0.0
1430.63,0.0
1430.83,0.0
1431.03,0.0
1431.23,1.0
1431.44,0.0
1431.64,0.0
1431.84,0.0
1432.05,0.0
1432.25,0.0
1432.45,0.0
1432.66,0.0
1432.86,0.0
1433.06,0.0
1433.27,0.0
1433.47,0.0
1433.67,0.0
1433.88,0.0
1434.08,0.0
1434.28,0.0
1434.49,0.0
1434.69,0.0
1434.89,0.0
1435.09,0.0
1435.3,0.0
1435.5,0.0
1435.7,0.0
1435.91,0.0
1436.11,0.0
1436.31,0.0
1436.52,0.0
1436.72,0.0
1436.92,0.0
1437.13,0.0
1437.33,0.0
1437.53,0.0
1437.74,0.0
1437.94,0.0
1438.14,0.0
1438.34,0.0
1438.55,0.0
1438.75,0.0
1438.95,0.0
1439.16,0.0
1439.36,0.0
1439.56,0.0
1439.77,0.0
1439.97,0.0
1440.17,0.0
1440.38,0.0
1440.58,0.0
1440.78,0.0
1440.99,0.0
1441.19,0.0
1441.39,0.0
1441.6,0.0
1441.8,1.0
1442.0,0.0
1442.2,0.0
1442.41,0.0
1442.61,0.0
1442.81,0.0
1443.02,0.0
1443.22,0.0
1443.42,0.0
1443.63,0.0
1443.83,1.0
1444.03,0.0
1444.24,0.0
1444.44,0.0
1444.64,0.0
1444.85,0.0
1445.05,0.0
1445.25,0.0
1445.45,0.0
1445.66,0.0
1445.86,0.0
1446.06,0.0
1446.27,0.0
1446.47,0.0
1446.67,0.0
1446.88,0.0
1447.08,0.0
1447.28,0.0
1447.49,0.0
1447.69,0.0
1447.89,0.0
1448.1,0.0
1448.3,1.0
1448.5,0.0
1448.71,0.0
1448.91,0.0
1449.11,0.0
1449.31,0.0
1449.52,0.0
1449.72,0.0
1449.92,0.0
1450.13,0.0
1450.33,0.0
1450.53,0.0
1450.74,0.0
1450.94,0.0
1451.14,0.0
1451.35,0.0
1451.55,0.0
1451.75,0.0
1451.96,0.0
1452.16,0.0
1452.36,0.0
1452.56,0.0
1452.77,0.0
1452.97,0.0
1453.17,0.0
1453.38,0.0
1453.58,0.0
1453.78,0.0
1453.99,0.0
1454.19,0.0
1454.39,1.0
1454.6,0.0
1454.8,2.0
1455.0,0.0
1455.21,0.0
1455.41,0.0
1455.61,0.0
1455.82,0.0
1456.02,0.0
1456.22,0.0
1456.42,0.0
1456.63,0.0
1456.83,0.0
1457.03,0.0
1457.24,0.0
1457.44,0.0
1457.64,0.0
1457.85,0.0
1458.05,0.0
1458.25,0.0
1458.46,0.0
1458.66,0.0
1458.86,0.0
1459.07,0.0
1459.27,0.0
1459.47,1.0
1459.67,1.0
1459.88,0.0
1460.08,2.0
1460.28,4.0
1460.49,3.0
1460.69,2.0
1460.89,2.0
1461.1,0.0
1461.3,0.0
1461.5,4.0
1461.71,3.0
1461.91,1.0
1462.11,0.0
1462.32,0.0
1462.52,1.0
1462.72,0.0
1462.92,0.0
1463.13,0.0
1463.33,0.0
1463.53,0.0
1463.74,0.0
1463.94,0.0
1464.14,0.0
1464.35,0.0
1464.55,0.0
1464.75,0.0
1464.96,0.0
1465.16,0.0
1465.36,0.0
1465.57,0.0
1465.77,0.0
1465.97,0.0
1466.18,0.0
1466.38,0.0
1466.58,0.0
1466.78,0.0
1466.99,0.0
1467.19,0.0
1467.39,0.0
1467.6,0.0
1467.8,0.0
1468.0,0.0
1468.21,0.0
1468.41,0.0
1468.61,0.0
1468.82,0.0
1469.02,0.0
1469.22,0.0
1469.43,0.0
1469.63,1.0
1469.83,0.0
1470.03,1.0
1470.24,0.0
1470.44,0.0
1470.64,0.0
1470.85,0.0
1471.05,0.0
1471.25,0.0
1471.46,0.0
1471.66,1.0
1471.86,0.0
1472.07,0.0
1472.27,0.0
1472.47,0.0
1472.68,0.0
1472.88,0.0
1473.08,0.0
1473.28,0.0
1473.49,0.0
1473.69,0.0
1473.89,0.0
1474.1,1.0
1474.3,0.0
1474.5,1.0
1474.71,0.0
1474.91,0.0
1475.11,0.0
1475.32,0.0
1475.52,0.0
1475.72,0.0
1475.93,0.0
1476.13,0.0
1476.33,0.0
1476.54,0.0
1476.74,0.0
1476.94,0.0
1477.14,0.0
1477.35,0.0
1477.55,0.0
1477.75,0.0
1477.96,0.0
1478.16,0.0
1478.36,0.0
1478.57,0.0
1478.77,0.0
1478.97,0.0
1479.18,0.0
1479.38,0.0
1479.58,0.0
1479.79,0.0
1479.99,0.0
1480.19,0.0
1480.39,0.0
1480.6,0.0
1480.8,0.0
1481.0,0.0
1481.21,1.0
1481.41,0.0
1481.61,0.0
1481.82,0.0
1482.02,1.0
1482.22,0.0
1482.43,0.0
1482.63,0.0
1482.83,1.0
1483.04,0.0
1483.24,0.0
1483.44,0.0
1483.64,0.0
1483.85,0.0
1484.05,0.0
1484.25,0.0
1484.46,0.0
1484.66,0.0
1484.86,0.0
1485.07,0.0
1485.27,1.0
1485.47,0.0
1485.68,0.0
1485.88,0.0
1486.08,0.0
1486.29,0.0
1486.49,1.0
1486.69,0.0
1486.89,0.0
1487.1,0.0
1487.3,0.0
1487.5,0.0
1487.71,0.0
1487.91,0.0
1488.11,0.0
1488.32,0.0
1488.52,0.0
1488.72,0.0
1488.93,0.0
1489.13,0.0
1489.33,0.0
1489.54,0.0
1489.74,0.0
1489.94,0.0
1490.15,0.0
1490.35,0.0
1490.55,0.0
1490.75,0.0
1490.96,0.0
1491.16,0.0
1491.36,0.0
1491.57,0.0
1491.77,0.0
1491.97,0.0
1492.18,0.0
1492.38,0.0
1492.58,0.0
1492.79,0.0
1492.99,0.0
1493.19,0.0
1493.4,0.0
1493.6,0.0
1493.8,1.0
1494.0,0.0
1494.21,0.0
1494.41,0.0
1494.61,0.0
1494.82,0.0
1495.02,0.0
1495.22,0.0
1495.43,0.0
1495.63,0.0
1495.83,0.0
1496.04,0.0
1496.24,0.0
1496.44,0.0
1496.65,0.0
1496.85,0.0
1497.05,0.0
1497.25,0.0
1497.46,0.0
1497.66,0.0
1497.86,0.0
1498.07,0.0
1498.27,0.0
1498.47,0.0
1498.68,0.0
1498.88,0.0
1499.08,0.0
1499.29,1.0
1499.49,0.0
1499.69,0.0
1499.9,0.0
1500.1,0.0
1500.3,0.0
1500.5,0.0
1500.71,0.0
1500.91,0.0
1501.11,0.0
1501.32,0.0
1501.52,0.0
1501.72,0.0
1501.93,0.0
1502.13,0.0
1502.33,0.0
1502.54,0.0
1502.74,0.0
1502.94,0.0
1503.15,0.0
1503.35,0.0
1503.55,0.0
1503.75,0.0
1503.96,0.0
1504.16,0.0
1504.36,0.0
1504.57,0.0
1504.77,0.0
1504.97,0.0
1505.18,0.0
1505.38,0.0
1505.58,0.0
1505.79,0.0
1505.99,0.0
1506.19,0.0
1506.4,0.0
1506.6,0.0
1506.8,0.0
1507.0,0.0
1507.21,0.0
1507.41,0.0
1507.61,0.0
1507.82,0.0
1508.02,0.0
1508.22,1.0
1508.43,0.0
1508.63,0.0
1508.83,0.0
1509.04,0.0
1509.24,0.0
1509.44,0.0
1509.65,0.0
1509.85,0.0
1510.05,1.0
1510.25,0.0
1510.46,0.0
1510.66,0.0
1510.86,0.0
1511.07,0.0
1511.27,0.0
1511.47,0.0
1511.68,0.0
1511.88,0.0
1512.08,0.0
1512.29,0.0
1512.49,0.0
1512.69,0.0
1512.9,0.0
1513.1,0.0
1513.3,0.0
1513.5,0.0
1513.71,0.0
1513.91,0.0
1514.11,0.0
1514.32,0.0
1514.52,0.0
1514.72,0.0
1514.93,0.0
1515.13,0.0
1515.33,0.0
1515.54,0.0
1515.74,0.0
1515.94,0.0
1516.15,0.0
1516.35,0.0
1516.55,0.0
1516.75,0.0
1516.96,0.0
1517.16,0.0
1517.36,0.0
1517.57,0.0
1517.77,0.0
1517.97,0.0
1518.18,0.0
1518.38,0.0
1518.58,0.0
1518.79,0.0
1518.99,0.0
1519.19,0.0
1519.4,0.0
1519.6,0.0
1519.8,0.0
1520.0,0.0
1520.21,0.0
1520.41,0.0
1520.61,0.0
1520.82,0.0
1521.02,0.0
1521.22,0.0
1521.43,0.0
1521.63,0.0
1521.83,0.0
1522.04,0.0
1522.24,0.0
1522.44,0.0
1522.65,0.0
1522.85,0.0
1523.05,0.0
1523.25,0.0
1523.46,0.0
1523.66,0.0
1523.86,0.0
1524.07,0.0
1524.27,0.0
1524.47,0.0
1524.68,0.0
1524.88,0.0
1525.08,0.0
1525.29,0.0
1525.49,0.0
1525.69,0.0
1525.9,0.0
1526.1,0.0
1526.3,0.0
1526.5,0.0
1526.71,0.0
1526.91,0.0
1527.11,0.0
1527.32,0.0
1527.52,0.0
1527.72,0.0
1527.93,0.0
1528.13,0.0
1528.33,0.0
1528.54,0.0
1528.74,0.0
1528.94,0.0
1529.15,0.0
1529.35,0.0
1529.55,0.0
1529.75,0.0
1529.96,0.0
1530.16,0.0
1530.36,0.0
1530.57,0.0
1530.77,0.0
1530.97,0.0
1531.18,0.0
1531.38,0.0
1531.58,0.0
1531.79,0.0
1531.99,0.0
1532.19,0.0
1532.4,0.0
1532.6,0.0
1532.8,0.0
1533.0,0.0
1533.21,0.0
1533.41,0.0
1533.61,0.0
1533.82,0.0
1534.02,0.0
1534.22,0.0
1534.43,0.0
1534.63,0.0
1534.83,0.0
1535.04,0.0
1535.24,0.0
1535.44,0.0
1535.65,1.0
1535.85,0.0
1536.05,0.0
1536.25,0.0
1536.46,0.0
1536.66,0.0
1536.86,0.0
1537.07,0.0
1537.27,0.0
1537.47,1.0
1537.68,0.0
1537.88,0.0
1538.08,0.0
1538.29,0.0
1538.49,0.0
1538.69,0.0
1538.9,0.0
1539.1,0.0
1539.3,0.0
1539.5,0.0
1539.71,0.0
1539.91,0.0
1540.11,0.0
1540.32,0.0
1540.52,0.0
1540.72,0.0
1540.93,0.0
1541.13,0.0
1541.33,0.0
1541.54,0.0
1541.74,0.0
1541.94,0.0
1542.15,0.0
1542.35,0.0
1542.55,0.0
1542.75,0.0
1542.96,0.0
1543.16,0.0
1543.36,0.0
1543.57,0.0
1543.77,0.0
1543.97,0.0
1544.18,0.0
1544.38,0.0
1544.58,0.0
1544.79,0.0
1544.99,0.0
1545.19,0.0
1545.4,0.0
1545.6,0.0
1545.8,0.0
1546.0,0.0
1546.21,0.0
1546.41,0.0
1546.61,0.0
1546.82,0.0
1547.02,0.0
1547.22,0.0
1547.43,0.0
1547.63,0.0
1547.83,0.0
1548.04,0.0
1548.24,0.0
1548.44,0.0
1548.64,0.0
1548.85,0.0
1549.05,0.0
1549.25,0.0
1549.46,0.0
1549.66,0.0
1549.86,0.0
1550.07,0.0
1550.27,0.0
1550.47,0.0
1550.68,0.0
1550.88,0.0
1551.08,0.0
1551.29,0.0
1551.49,0.0
1551.69,0.0
1551.89,0.0
1552.1,0.0
1552.3,0.0
1552.5,0.0
1552.71,0.0
1552.91,0.0
1553.11,0.0
1553.32,0.0
1553.52,0.0
1553.72,0.0
1553.93,0.0
1554.13,0.0
1554.33,0.0
1554.54,0.0
1554.74,0.0
1554.94,0.0
1555.14,0.0
1555.35,0.0
1555.55,0.0
1555.75,0.0
1555.96,0.0
1556.16,0.0
1556.36,0.0
1556.57,0.0
1556.77,0.0
1556.97,0.0
1557.18,0.0
1557.38,0.0
1557.58,0.0
1557.79,0.0
1557.99,0.0
1558.19,0.0
1558.39,0.0
1558.6,0.0
1558.8,0.0
1559.0,0.0
1559.21,0.0
1559.41,0.0
1559.61,0.0
1559.82,0.0
1560.02,0.0
1560.22,0.0
1560.43,0.0
1560.63,0.0
1560.83,0.0
1561.04,0.0
1561.24,0.0
1561.44,0.0
1561.64,0.0
1561.85,1.0
1562.05,0.0
1562.25,0.0
1562.46,0.0
1562.66,0.0
1562.86,0.0
1563.07,0.0
1563.27,0.0
1563.47,0.0
1563.68,0.0
1563.88,0.0
1564.08,0.0
1564.28,1.0
1564.49,0.0
1564.69,0.0
1564.89,0.0
1565.1,0.0
1565.3,0.0
1565.5,0.0
1565.71,0.0
1565.91,0.0
1566.11,0.0
1566.32,0.0
1566.52,0.0
1566.72,0.0
1566.93,0.0
1567.13,0.0
1567.33,0.0
1567.53,0.0
1567.74,0.0
1567.94,0.0
1568.14,0.0
1568.35,0.0
1568.55,1.0
1568.75,0.0
1568.96,0.0
1569.16,0.0
1569.36,0.0
1569.57,0.0
1569.77,0.0
1569.97,0.0
1570.18,0.0
1570.38,0.0
1570.58,0.0
1570.78,0.0
1570.99,0.0
1571.19,0.0
1571.39,0.0
1571.6,0.0
1571.8,1.0
1572.0,1.0
1572.21,0.0
1572.41,0.0
1572.61,0.0
1572.82,0.0
1573.02,0.0
1573.22,0.0
1573.42,0.0
1573.63,0.0
1573.83,0.0
1574.03,0.0
1574.24,0.0
1574.44,0.0
1574.64,0.0
1574.85,0.0
1575.05,0.0
1575.25,0.0
1575.46,0.0
1575.66,0.0
1575.86,0.0
1576.07,0.0
1576.27,0.0
1576.47,0.0
1576.67,0.0
1576.88,0.0
1577.08,0.0
1577.28,0.0
1577.49,0.0
1577.69,0.0
1577.89,0.0
1578.1,0.0
1578.3,0.0
1578.5,0.0
1578.71,0.0
1578.91,0.0
1579.11,0.0
1579.32,0.0
1579.52,0.0
1579.72,0.0
1579.92,0.0
1580.13,0.0
1580.33,0.0
1580.53,0.0
1580.74,0.0
1580.94,0.0
1581.14,0.0
1581.35,0.0
1581.55,0.0
1581.75,0.0
1581.96,0.0
1582.16,0.0
1582.36,1.0
1582.56,1.0
1582.77,0.0
1582.97,0.0
1583.17,0.0
1583.38,0.0
1583.58,0.0
1583.78,0.0
1583.99,0.0
1584.19,0.0
1584.39,0.0
1584.6,0.0
1584.8,0.0
1585.0,0.0
1585.21,0.0
1585.41,0.0
1585.61,0.0
1585.81,0.0
1586.02,0.0
1586.22,0.0
1586.42,0.0
1586.63,0.0
1586.83,0.0
1587.03,0.0
1587.24,0.0
1587.44,0.0
1587.64,0.0
1587.85,0.0
1588.05,0.0
1588.25,0.0
1588.46,0.0
1588.66,0.0
1588.86,0.0
1589.06,0.0
1589.27,0.0
1589.47,0.0
1589.67,0.0
1589.88,1.0
1590.08,0.0
1590.28,0.0
1590.49,0.0
1590.69,0.0
1590.89,0.0
1591.1,0.0
1591.3,0.0
1591.5,1.0
1591.7,0.0
1591.91,0.0
1592.11,0.0
1592.31,0.0
1592.52,0.0
1592.72,0.0
1592.92,0.0
1593.13,1.0
1593.33,0.0
1593.53,0.0
1593.74,0.0
1593.94,0.0
1594.14,0.0
1594.35,0.0
1594.55,0.0
1594.75,0.0
1594.95,0.0
1595.16,0.0
1595.36,0.0
1595.56,0.0
1595.77,0.0
1595.97,0.0
1596.17,0.0
1596.38,0.0
1596.58,0.0
1596.78,1.0
1596.99,0.0
1597.19,0.0
1597.39,0.0
1597.59,0.0
1597.8,0.0
1598.0,0.0
1598.2,0.0
1598.41,0.0
1598.61,0.0
1598.81,0.0
1599.02,0.0
1599.22,0.0
1599.42,0.0
1599.63,0.0
1599.83,0.0
1600.03,0.0
1600.24,0.0
1600.44,0.0
1600.64,0.0
1600.84,0.0
1601.05,0.0
1601.25,0.0
1601.45,0.0
1601.66,0.0
1601.86,0.0
1602.06,0.0
1602.27,0.0
1602.47,0.0
1602.67,0.0
1602.88,0.0
1603.08,0.0
1603.28,0.0
1603.49,0.0
1603.69,0.0
1603.89,0.0
1604.09,0.0
1604.3,0.0
1604.5,0.0
1604.7,0.0
1604.91,0.0
1605.11,0.0
1605.31,0.0
1605.52,0.0
1605.72,0.0
1605.92,0.0
1606.13,0.0
1606.33,0.0
1606.53,0.0
1606.73,0.0
1606.94,0.0
1607.14,0.0
1607.34,0.0
1607.55,0.0
1607.75,0.0
1607.95,0.0
1608.16,0.0
1608.36,0.0
1608.56,0.0
1608.77,0.0
1608.97,0.0
1609.17,0.0
1609.38,0.0
1609.58,0.0
1609.78,0.0
1609.98,0.0
1610.19,0.0
1610.39,0.0
1610.59,0.0
1610.8,0.0
1611.0,0.0
1611.2,0.0
1611.41,0.0
1611.61,0.0
1611.81,0.0
1612.02,0.0
1612.22,0.0
1612.42,0.0
1612.62,0.0
1612.83,0.0
1613.03,0.0
1613.23,0.0
1613.44,0.0
1613.64,0.0
1613.84,0.0
1614.05,0.0
1614.25,0.0
1614.45,0.0
1614.66,0.0
1614.86,0.0
1615.06,0.0
1615.27,0.0
1615.47,0.0
1615.67,0.0
1615.87,0.0
1616.08,0.0
1616.28,0.0
1616.48,0.0
1616.69,0.0
1616.89,0.0
1617.09,0.0
1617.3,0.0
1617.5,0.0
1617.7,0.0
1617.91,0.0
1618.11,0.0
1618.31,0.0
1618.51,0.0
1618.72,0.0
1618.92,0.0
1619.12,0.0
1619.33,0.0
1619.53,0.0
1619.73,0.0
1619.94,0.0
1620.14,0.0
1620.34,0.0
1620.55,0.0
1620.75,0.0
1620.95,0.0
1621.15,0.0
1621.36,1.0
1621.56,0.0
1621.76,0.0
1621.97,0.0
1622.17,0.0
1622.37,0.0
1622.58,0.0
1622.78,1.0
1622.98,0.0
1623.19,0.0
1623.39,0.0
1623.59,1.0
1623.8,0.0
1624.0,0.0
1624.2,0.0
1624.4,0.0
1624.61,0.0
1624.81,0.0
1625.01,0.0
1625.22,0.0
1625.42,0.0
1625.62,0.0
1625.83,0.0
1626.03,0.0
1626.23,0.0
1626.44,0.0
1626.64,0.0
1626.84,0.0
1627.04,0.0
1627.25,0.0
1627.45,0.0
1627.65,0.0
1627.86,0.0
1628.06,0.0
1628.26,1.0
1628.47,0.0
1628.67,0.0
1628.87,0.0
1629.08,0.0
1629.28,0.0
1629.48,0.0
1629.69,1.0
1629.89,0.0
1630.09,0.0
1630.29,0.0
1630.5,0.0
1630.7,0.0
1630.9,0.0
1631.11,0.0
1631.31,0.0
1631.51,0.0
1631.72,0.0
1631.92,0.0
1632.12,0.0
1632.33,0.0
1632.53,0.0
1632.73,0.0
1632.93,0.0
1633.14,0.0
1633.34,0.0
1633.54,0.0
1633.75,0.0
1633.95,0.0
1634.15,0.0
1634.36,0.0
1634.56,0.0
1634.76,0.0
1634.97,0.0
1635.17,0.0
1635.37,0.0
1635.57,0.0
1635.78,0.0
1635.98,0.0
1636.18,0.0
1636.39,0.0
1636.59,0.0
1636.79,0.0
1637.0,0.0
1637.2,0.0
1637.4,0.0
1637.61,0.0
1637.81,0.0
1638.01,0.0
1638.22,0.0
1638.42,0.0
1638.62,0.0
1638.82,0.0
1639.03,0.0
1639.23,0.0
1639.43,0.0
1639.64,0.0
1639.84,0.0
1640.04,0.0
1640.25,0.0
1640.45,0.0
1640.65,0.0
1640.86,0.0
1641.06,0.0
1641.26,0.0
1641.46,0.0
1641.67,0.0
1641.87,0.0
1642.07,0.0
1642.28,0.0
1642.48,0.0
1642.68,0.0
1642.89,0.0
1643.09,0.0
1643.29,0.0
1643.5,0.0
1643.7,0.0
1643.9,0.0
1644.1,0.0
1644.31,0.0
1644.51,0.0
1644.71,0.0
1644.92,0.0
1645.12,0.0
1645.32,0.0
1645.53,0.0
1645.73,0.0
1645.93,0.0
1646.14,0.0
1646.34,0.0
1646.54,0.0
1646.75,0.0
1646.95,0.0
1647.15,0.0
1647.35,0.0
1647.56,0.0
1647.76,0.0
1647.96,0.0
1648.17,0.0
1648.37,0.0
1648.57,0.0
1648.78,0.0
1648.98,0.0
1649.18,0.0
1649.39,0.0
1649.59,0.0
1649.79,0.0
1649.99,0.0
1650.2,0.0
1650.4,0.0
1650.6,0.0
1650.81,0.0
1651.01,0.0
1651.21,0.0
1651.42,0.0
1651.62,0.0
1651.82,0.0
1652.03,0.0
1652.23,0.0
1652.43,0.0
1652.63,0.0
1652.84,0.0
1653.04,0.0
1653.24,0.0
1653.45,0.0
1653.65,0.0
1653.85,0.0
1654.06,0.0
1654.26,0.0
1654.46,0.0
1654.67,0.0
1654.87,0.0
1655.07,0.0
1655.28,0.0
1655.48,0.0
1655.68,0.0
1655.88,0.0
1656.09,0.0
1656.29,0.0
1656.49,0.0
1656.7,0.0
1656.9,0.0
1657.1,0.0
1657.31,0.0
1657.51,0.0
1657.71,0.0
1657.92,0.0
1658.12,0.0
1658.32,0.0
1658.52,0.0
1658.73,0.0
1658.93,0.0
1659.13,0.0
1659.34,0.0
1659.54,0.0
1659.74,0.0
1659.95,0.0
1660.15,0.0
1660.35,0.0
1660.56,0.0
1660.76,0.0
1660.96,0.0
1661.16,0.0
1661.37,0.0
1661.57,0.0
1661.77,0.0
1661.98,0.0
1662.18,0.0
1662.38,0.0
1662.59,0.0
1662.79,0.0
1662.99,0.0
1663.2,0.0
1663.4,0.0
1663.6,0.0
1663.8,0.0
1664.01,0.0
1664.21,0.0
1664.41,0.0
1664.62,0.0
1664.82,0.0
1665.02,0.0
1665.23,0.0
